SRRL LI-1800 Direct Normal Spectra
July 15, 2003 at 13:30 MST
WaveLN	Irradiance

Mostly Cloudy

SRRL Atmospheric Optical Calibration System (AOCS) 
NREL-SRRL, Golden, Colorado
(5 min scans @ 2nm) 

[nm]	[watts/m^2/nm]
300	0.003050
302	0.006347
304	0.010579
306	0.015641
308	0.021123
310	0.029574
312	0.037437
314	0.042334
316	0.049545
318	0.057947
320	0.063511
322	0.066765
324	0.082275
326	0.098606
328	0.107887
330	0.112278
332	0.110966
334	0.111103
336	0.108738
338	0.118237
340	0.126297
342	0.125183
344	0.122005
346	0.126335
348	0.130371
350	0.139931
352	0.146362
354	0.155663
356	0.139885
358	0.134735
360	0.149628
362	0.158424
364	0.175392
366	0.193443
368	0.196106
370	0.196426
372	0.180374
374	0.170731
376	0.196533
378	0.216263
380	0.203941
382	0.167000
384	0.165741
386	0.184525
388	0.198067
390	0.227295
392	0.201965
394	0.190979
396	0.205833
398	0.262146
400	0.332977
402	0.355652
404	0.352051
406	0.345657
408	0.358002
410	0.364380
412	0.381958
414	0.390213
416	0.394058
418	0.391006
420	0.395370
422	0.401108
424	0.403076
426	0.404755
428	0.395325
430	0.362152
432	0.396347
434	0.433960
436	0.464661
438	0.465912
440	0.474991
442	0.512299
444	0.536224
446	0.543121
448	0.566345
450	0.596436
452	0.598022
454	0.585480
456	0.598267
458	0.606384
460	0.608185
462	0.619995
464	0.617645
466	0.608582
468	0.609589
470	0.614075
472	0.629761
474	0.647003
476	0.657379
478	0.669891
480	0.684143
482	0.691132
484	0.681061
486	0.634827
488	0.640656
490	0.684723
492	0.689667
494	0.701447
496	0.721252
498	0.719299
500	0.707428
502	0.699615
504	0.711670
506	0.733856
508	0.739502
510	0.743591
512	0.748779
514	0.738007
516	0.714020
518	0.687653
520	0.718567
522	0.752411
524	0.771423
526	0.765289
528	0.763336
530	0.802094
532	0.807892
534	0.807587
536	0.827515
538	0.825562
540	0.813751
542	0.811340
544	0.823639
546	0.828033
548	0.828461
550	0.836090
552	0.845520
554	0.855011
556	0.857513
558	0.845795
560	0.810089
562	0.822144
564	0.830750
566	0.832306
568	0.835510
570	0.831787
572	0.834991
574	0.854218
576	0.856750
578	0.856201
580	0.862274
582	0.880493
584	0.890137
586	0.883698
588	0.863800
590	0.834595
592	0.858337
594	0.874603
596	0.881439
598	0.891571
600	0.890442
602	0.890350
604	0.908325
606	0.912964
608	0.911011
610	0.902222
612	0.903870
614	0.902252
616	0.893799
618	0.898071
620	0.918365
622	0.919647
624	0.908691
626	0.905609
628	0.914307
630	0.910797
632	0.913757
634	0.922791
636	0.932068
638	0.945862
640	0.947144
642	0.939362
644	0.944397
646	0.935394
648	0.924408
650	0.919464
652	0.928192
654	0.938538
656	0.889862
658	0.875946
660	0.939606
662	0.959869
664	0.968079
666	0.968170
668	0.974884
670	0.975555
672	0.972046
674	0.977997
676	0.979492
678	0.982635
680	0.975922
682	0.976257
684	0.972748
686	0.948914
688	0.871216
690	0.857178
692	0.896515
694	0.911743
696	0.915253
698	0.932922
700	0.930847
702	0.916229
704	0.920105
706	0.934875
708	0.943848
710	0.946960
712	0.946411
714	0.943970
716	0.926178
718	0.854492
720	0.766174
722	0.799896
724	0.837372
726	0.802795
728	0.803558
730	0.806946
732	0.822510
734	0.868561
736	0.894257
738	0.896545
740	0.894958
742	0.899475
744	0.911011
746	0.925171
748	0.935486
750	0.929291
752	0.927582
754	0.928986
756	0.928925
758	0.918243
760	0.767456
762	0.503845
764	0.520569
766	0.623077
768	0.776306
770	0.863708
772	0.892731
774	0.902863
776	0.877930
778	0.879120
780	0.881226
782	0.880371
784	0.879456
786	0.877075
788	0.869934
790	0.853760
792	0.845337
794	0.837280
796	0.840881
798	0.842804
800	0.845612
802	0.833191
804	0.830566
806	0.839142
808	0.834015
810	0.823486
812	0.809967
814	0.766693
816	0.710754
818	0.684448
820	0.700317
822	0.718384
824	0.693665
826	0.731781
828	0.745239
830	0.733093
832	0.732727
834	0.739563
836	0.764801
838	0.778839
840	0.796478
842	0.792542
844	0.800690
846	0.796722
848	0.798279
850	0.775818
852	0.766357
854	0.740234
856	0.718445
858	0.764923
860	0.775482
862	0.774536
864	0.775055
866	0.740021
868	0.725006
870	0.752472
872	0.761078
874	0.757202
876	0.752228
878	0.751648
880	0.741943
882	0.732117
884	0.744690
886	0.735962
888	0.729309
890	0.728882
892	0.726105
894	0.704163
896	0.661865
898	0.608459
900	0.563812
902	0.545288
904	0.582733
906	0.629547
908	0.605560
910	0.561401
912	0.559204
914	0.552948
916	0.538971
918	0.537598
920	0.561920
922	0.594788
924	0.590393
926	0.578217
928	0.568634
930	0.509644
932	0.395981
934	0.286636
936	0.234108
938	0.237732
940	0.281982
942	0.339478
944	0.319244
946	0.291458
948	0.290131
950	0.301208
952	0.309189
954	0.314194
956	0.321228
958	0.337891
960	0.349808
962	0.368271
964	0.392960
966	0.410614
968	0.448059
970	0.510132
972	0.536774
974	0.521637
976	0.490952
978	0.504272
980	0.519012
982	0.542145
984	0.558655
986	0.570465
988	0.580170
990	0.578583
992	0.584686
994	0.590332
996	0.588654
998	0.595337
1000	0.587280
1002	0.578522
1004	0.572113
1006	0.567261
1008	0.567749
1010	0.577942
1012	0.575470
1014	0.573944
1016	0.568756
1018	0.568146
1020	0.560822
1022	0.563049
1024	0.564880
1026	0.569519
1028	0.561554
1030	0.559570
1032	0.560516
1034	0.554016
1036	0.550476
1038	0.548615
1040	0.544037
1042	0.546722
1044	0.551422
1046	0.538666
1048	0.543457
1050	0.546265
1052	0.539093
1054	0.533325
1056	0.529602
1058	0.529114
1060	0.517151
1062	0.526093
1064	0.527802
1066	0.521515
1068	0.509827
1070	0.500610
1072	0.496002
1074	0.496399
1076	0.503845
1078	0.497833
1080	0.499344
1082	0.489212
1084	0.483963
1086	0.473953
1088	0.461899
1090	0.468597
1092	0.455276
1094	0.438690
1096	0.432785
1098	0.422272
1100	0.412140