Wavelength (nm)	A02 abs1 N
225.00	0.10341
225.25	0.093871
225.50	0.084581
225.75	0.078460
226.00	0.071238
226.25	0.069517
226.50	0.065471
226.75	0.060007
227.00	0.057020
227.25	0.058139
227.50	0.056022
227.75	0.053917
228.00	0.054300
228.25	0.054568
228.50	0.051636
228.75	0.054343
229.00	0.054757
229.25	0.055888
229.50	0.054824
229.75	0.057336
230.00	0.059356
230.25	0.061121
230.50	0.065574
230.75	0.066481
231.00	0.068707
231.25	0.070527
231.50	0.071689
231.75	0.077024
232.00	0.078959
232.25	0.078746
232.50	0.082707
232.75	0.083230
233.00	0.085043
233.25	0.088955
233.50	0.088986
233.75	0.092782
234.00	0.094954
234.25	0.097199
234.50	0.10021
234.75	0.10348
235.00	0.10758
235.25	0.11266
235.50	0.11816
235.75	0.12415
236.00	0.12896
236.25	0.13587
236.50	0.13997
236.75	0.14653
237.00	0.14979
237.25	0.15475
237.50	0.15788
237.75	0.16204
238.00	0.16524
238.25	0.16759
238.50	0.17122
238.75	0.17249
239.00	0.17769
239.25	0.18014
239.50	0.18227
239.75	0.18705
240.00	0.19353
240.25	0.19997
240.50	0.20705
240.75	0.21404
241.00	0.22242
241.25	0.23140
241.50	0.24143
241.75	0.25335
242.00	0.26450
242.25	0.27342
242.50	0.28387
242.75	0.29095
243.00	0.29524
243.25	0.30021
243.50	0.30319
243.75	0.30543
244.00	0.30827
244.25	0.31037
244.50	0.31351
244.75	0.31669
245.00	0.32081
245.25	0.32516
245.50	0.33120
245.75	0.33986
246.00	0.34782
246.25	0.36179
246.50	0.37316
246.75	0.38585
247.00	0.40176
247.25	0.42143
247.50	0.44204
247.75	0.46188
248.00	0.47686
248.25	0.48625
248.50	0.49732
248.75	0.50269
249.00	0.50393
249.25	0.50699
249.50	0.50602
249.75	0.50564
250.00	0.50658
250.25	0.50595
250.50	0.50632
250.75	0.51100
251.00	0.51631
251.25	0.52658
251.50	0.54014
251.75	0.55758
252.00	0.57797
252.25	0.59788
252.50	0.62006
252.75	0.64119
253.00	0.66280
253.25	0.68457
253.50	0.70548
253.75	0.71920
254.00	0.72437
254.25	0.72537
254.50	0.73141
254.75	0.73697
255.00	0.74077
255.25	0.74823
255.50	0.75290
255.75	0.75255
256.00	0.74940
256.25	0.73760
256.50	0.72691
256.75	0.71712
257.00	0.70749
257.25	0.69967
257.50	0.69983
257.75	0.70900
258.00	0.72878
258.25	0.75177
258.50	0.77384
258.75	0.79578
259.00	0.81162
259.25	0.82841
259.50	0.84898
259.75	0.86037
260.00	0.87130
260.25	0.87047
260.50	0.86856
260.75	0.87493
261.00	0.89329
261.25	0.93057
261.50	0.98153
261.75	1.0000
262.00	0.99184
262.25	0.95276
262.50	0.89770
262.75	0.84212
263.00	0.78180
263.25	0.73313
263.50	0.69200
263.75	0.66938
264.00	0.66473
264.25	0.67188
264.50	0.68223
264.75	0.68732
265.00	0.67898
265.25	0.65442
265.50	0.61312
265.75	0.57437
266.00	0.53410
266.25	0.49644
266.50	0.46700
266.75	0.45260
267.00	0.45628
267.25	0.48286
267.50	0.53525
267.75	0.61465
268.00	0.71378
268.25	0.81137
268.50	0.85928
268.75	0.84474
269.00	0.78433
269.25	0.70510
269.50	0.62443
269.75	0.54631
270.00	0.47227
270.25	0.40459
270.50	0.34194
270.75	0.28744
271.00	0.24214
271.25	0.20464
271.50	0.17399
271.75	0.14922
272.00	0.12906
272.25	0.11409
272.50	0.10117
272.75	0.088913
273.00	0.080006
273.25	0.072522
273.50	0.065130
273.75	0.059119
274.00	0.053363
274.25	0.047377
274.50	0.042765
274.75	0.037508
275.00	0.032836
275.25	0.028589
275.50	0.024945
275.75	0.021891
276.00	0.019055
276.25	0.017346
276.50	0.014480
276.75	0.012935
277.00	0.012095
277.25	0.011189
277.50	0.0096068
277.75	0.0084569
278.00	0.0066742
278.25	0.0056582
278.50	0.0051593
278.75	0.0049464
279.00	0.0035470
279.25	0.0035470
279.50	0.0036565
279.75	0.0035957
280.00	0.0032671
280.25	0.0028230
280.50	0.0024215
280.75	0.0016062
281.00	0.0026527
281.25	0.0031150
281.50	0.0028048
281.75	0.0027683
282.00	0.0033402
282.25	0.0028048
282.50	0.0027318
282.75	0.0016792
283.00	0.0017826
283.25	0.0020260
283.50	0.0022633
283.75	0.00073617
284.00	0.0011621
284.25	0.0017826
284.50	0.0012107
284.75	0.0015210
285.00	0.0015819
285.25	0.0013020
285.50	0.0028717
285.75	0.0013446
286.00	0.0022207
286.25	0.0015210
286.50	0.0011986
286.75	0.0020990
287.00	0.00074226
287.25	0.0015393
287.50	0.0010647
287.75	0.0018009
288.00	0.0025736
288.25	0.0017522
288.50	0.0021355
288.75	0.0014480
289.00	0.0015028
289.25	0.00080918
289.50	0.0014906
289.75	0.0018739
290.00	0.00057799
290.25	0.00070575
290.50	0.0030785
290.75	0.00090653
291.00	0.0021842
291.25	0.0024580
291.50	0.0017157
291.75	0.0010039
292.00	0.0010525
292.25	0.0012533
292.50	0.00077268
292.75	0.0021964
293.00	0.0023485
293.25	0.0017583
293.50	0.0027135
293.75	0.00088219
294.00	0.0020199
294.25	0.0023667
294.50	0.0019469
294.75	0.00063883
295.00	0.0023180
295.25	0.00026770
295.50	0.0024032
295.75	0.0027135
296.00	0.0016975
296.25	0.0024580
296.50	0.00021294
296.75	0.00054148
297.00	0.0018496
297.25	0.0014298
297.50	0.0015758
297.75	0.0013202
298.00	0.0013811
298.25	0.0022146
298.50	0.00078485
298.75	0.0020321
299.00	0.0025127
299.25	0.0020868
299.50	0.0018921
299.75	0.0018921
300.00	0.0017583
