Wavelength (nm)	B02 abs N
220.00	0.48115
220.25	0.46255
220.50	0.45354
220.75	0.44287
221.00	0.42804
221.25	0.41522
221.50	0.40496
221.75	0.39961
222.00	0.38389
222.25	0.37363
222.50	0.36623
222.75	0.35372
223.00	0.34506
223.25	0.33488
223.50	0.32534
223.75	0.31372
224.00	0.30283
224.25	0.29776
224.50	0.28566
224.75	0.27862
225.00	0.27088
225.25	0.25820
225.50	0.25013
225.75	0.24097
226.00	0.23339
226.25	0.22739
226.50	0.21993
226.75	0.21184
227.00	0.20685
227.25	0.19702
227.50	0.19057
227.75	0.18577
228.00	0.18015
228.25	0.17273
228.50	0.16632
228.75	0.15891
229.00	0.15514
229.25	0.14912
229.50	0.14604
229.75	0.14117
230.00	0.13899
230.25	0.13544
230.50	0.13268
230.75	0.13002
231.00	0.12415
231.25	0.12303
231.50	0.12310
231.75	0.12062
232.00	0.11966
232.25	0.11780
232.50	0.11537
232.75	0.11490
233.00	0.11712
233.25	0.11458
233.50	0.11427
233.75	0.11561
234.00	0.11385
234.25	0.11589
234.50	0.11612
234.75	0.11643
235.00	0.11772
235.25	0.11812
235.50	0.12061
235.75	0.12248
236.00	0.12419
236.25	0.12515
236.50	0.12911
236.75	0.13117
237.00	0.13317
237.25	0.13479
237.50	0.13844
237.75	0.14028
238.00	0.14478
238.25	0.14744
238.50	0.15090
238.75	0.15215
239.00	0.15498
239.25	0.16036
239.50	0.16385
239.75	0.16713
240.00	0.17174
240.25	0.17570
240.50	0.18024
240.75	0.18407
241.00	0.18728
241.25	0.19211
241.50	0.19579
241.75	0.20063
242.00	0.20450
242.25	0.21125
242.50	0.21565
242.75	0.22168
243.00	0.22706
243.25	0.23124
243.50	0.23758
243.75	0.24194
244.00	0.24661
244.25	0.25351
244.50	0.25663
244.75	0.26364
245.00	0.27015
245.25	0.27401
245.50	0.28426
245.75	0.28854
246.00	0.29323
246.25	0.30173
246.50	0.30946
246.75	0.31311
247.00	0.31975
247.25	0.32650
247.50	0.33280
247.75	0.34082
248.00	0.34762
248.25	0.35545
248.50	0.36175
248.75	0.36844
249.00	0.37644
249.25	0.38480
249.50	0.39071
249.75	0.39983
250.00	0.40614
250.25	0.41299
250.50	0.42165
250.75	0.42813
251.00	0.43835
251.25	0.44290
251.50	0.45295
251.75	0.46282
252.00	0.46999
252.25	0.47723
252.50	0.48518
252.75	0.49264
253.00	0.50132
253.25	0.51145
253.50	0.51760
253.75	0.52481
254.00	0.53435
254.25	0.53970
254.50	0.54408
254.75	0.54986
255.00	0.55764
255.25	0.56933
255.50	0.57458
255.75	0.58310
256.00	0.59121
256.25	0.60190
256.50	0.61014
256.75	0.61706
257.00	0.62654
257.25	0.63382
257.50	0.64130
257.75	0.65181
258.00	0.66032
258.25	0.66799
258.50	0.67577
258.75	0.68483
259.00	0.69458
259.25	0.70294
259.50	0.70777
259.75	0.71754
260.00	0.72604
260.25	0.73571
260.50	0.74397
260.75	0.74836
261.00	0.75616
261.25	0.76592
261.50	0.77585
261.75	0.78063
262.00	0.78728
262.25	0.79626
262.50	0.80527
262.75	0.81115
263.00	0.81917
263.25	0.82728
263.50	0.83424
263.75	0.83988
264.00	0.84560
264.25	0.85146
264.50	0.85868
264.75	0.86811
265.00	0.87137
265.25	0.87636
265.50	0.88262
265.75	0.88905
266.00	0.89625
266.25	0.89952
266.50	0.90511
266.75	0.91117
267.00	0.91550
267.25	0.91975
267.50	0.92571
267.75	0.93268
268.00	0.93675
268.25	0.93912
268.50	0.94396
268.75	0.94854
269.00	0.94852
269.25	0.95605
269.50	0.96283
269.75	0.96450
270.00	0.96587
270.25	0.97065
270.50	0.97345
270.75	0.97551
271.00	0.97899
271.25	0.97932
271.50	0.98031
271.75	0.98737
272.00	0.98667
272.25	0.98509
272.50	0.98933
272.75	0.98949
273.00	0.99113
273.25	0.99376
273.50	0.99335
273.75	0.99374
274.00	0.99392
274.25	0.99688
274.50	0.99704
274.75	0.99841
275.00	0.99776
275.25	0.99734
275.50	0.99864
275.75	0.99792
276.00	0.99881
276.25	1.00000
276.50	0.99710
276.75	0.99637
277.00	0.99515
277.25	0.99665
277.50	0.99196
277.75	0.99442
278.00	0.99280
278.25	0.98938
278.50	0.98420
278.75	0.98522
279.00	0.98245
279.25	0.97881
279.50	0.97637
279.75	0.97835
280.00	0.97303
280.25	0.97189
280.50	0.96764
280.75	0.96166
281.00	0.96247
281.25	0.95791
281.50	0.95519
281.75	0.95142
282.00	0.94489
282.25	0.94265
282.50	0.93430
282.75	0.93236
283.00	0.92746
283.25	0.92374
283.50	0.91849
283.75	0.91555
284.00	0.90874
284.25	0.90181
284.50	0.89708
284.75	0.89177
285.00	0.88670
285.25	0.87990
285.50	0.87417
285.75	0.86723
286.00	0.86231
286.25	0.85300
286.50	0.84647
286.75	0.83971
287.00	0.82979
287.25	0.82846
287.50	0.81723
287.75	0.80669
288.00	0.80264
288.25	0.79296
288.50	0.78442
288.75	0.78080
289.00	0.77147
289.25	0.76326
289.50	0.75305
289.75	0.74553
290.00	0.73845
290.25	0.72701
290.50	0.71895
290.75	0.71198
291.00	0.70241
291.25	0.69402
291.50	0.68268
291.75	0.67572
292.00	0.66567
292.25	0.65615
292.50	0.64648
292.75	0.63669
293.00	0.62841
293.25	0.62024
293.50	0.61203
293.75	0.60356
294.00	0.59605
294.25	0.58687
294.50	0.58322
294.75	0.57508
295.00	0.56367
295.25	0.55597
295.50	0.54267
295.75	0.53399
296.00	0.52380
296.25	0.51543
296.50	0.50582
296.75	0.49658
297.00	0.48701
297.25	0.47833
297.50	0.46735
297.75	0.45820
298.00	0.44916
298.25	0.43927
298.50	0.42917
298.75	0.41922
299.00	0.41029
299.25	0.40057
299.50	0.39002
299.75	0.38413
300.00	0.37462
300.25	0.36418
300.50	0.35502
300.75	0.34729
301.00	0.33928
301.25	0.33186
301.50	0.32039
301.75	0.31325
302.00	0.30707
302.25	0.29565
302.50	0.28818
302.75	0.28123
303.00	0.27239
303.25	0.26643
303.50	0.25857
303.75	0.25034
304.00	0.24377
304.25	0.23669
304.50	0.23021
304.75	0.22331
305.00	0.21677
305.25	0.20753
305.50	0.20346
305.75	0.19694
306.00	0.19035
306.25	0.18271
306.50	0.17878
306.75	0.17058
307.00	0.16880
307.25	0.16194
307.50	0.15852
307.75	0.14989
308.00	0.14574
308.25	0.13973
308.50	0.13547
308.75	0.13225
309.00	0.12471
309.25	0.12035
309.50	0.11901
309.75	0.11099
310.00	0.11802
310.25	0.10905
310.50	0.11439
310.75	0.10428
311.00	0.095088
311.25	0.094282
311.50	0.094472
311.75	0.095507
312.00	0.087041
312.25	0.079816
312.50	0.082973
312.75	0.071179
313.00	0.081732
313.25	0.078646
313.50	0.074072
313.75	0.062516
314.00	0.052421
314.25	0.055155
314.50	0.061834
314.75	0.052197
315.00	0.055548
315.25	0.055350
315.50	0.041795
315.75	0.042829
316.00	0.044965
316.25	0.044662
316.50	0.035588
316.75	0.039220
317.00	0.038759
317.25	0.026929
317.50	0.035184
317.75	0.033225
318.00	0.028176
318.25	0.028902
318.50	0.022691
318.75	0.025944
319.00	0.025976
319.25	0.022581
319.50	0.025439
319.75	0.019808
320.00	0.019637
320.25	0.016243
320.50	0.023556
320.75	0.019854
321.00	0.020140
321.25	0.015628
321.50	0.014567
321.75	0.016112
322.00	0.014400
322.25	0.012899
322.50	0.014762
322.75	0.012380
323.00	0.013741
323.25	0.015357
323.50	0.0087049
323.75	0.012778
324.00	0.011233
324.25	0.011651
324.50	0.0093664
324.75	0.0053031
325.00	0.0097281
325.25	0.0080950
325.50	0.011049
325.75	0.010834
326.00	0.010002
326.25	0.010359
326.50	0.0056970
326.75	0.0087923
327.00	0.0094134
327.25	0.0060017
327.50	0.012012
327.75	0.0069884
328.00	0.0079969
328.25	0.0010631
328.50	0.0064038
328.75	0.0069280
329.00	0.0082094
329.25	0.0059864
329.50	0.0035256
329.75	0.0073430
330.00	0.0039841
330.25	0.0059347
330.50	0.0063357
330.75	0.0085153
331.00	0.0046721
331.25	0.0090089
331.50	0.0072878
331.75	0.0078472
332.00	0.0072356
332.25	0.0055761
332.50	0.0010636
332.75	0.0013149
333.00	0.0022706
333.25	0.0042564
333.50	-0.00096040
333.75	0.0058948
334.00	0.0050102
334.25	0.0023116
334.50	0.0026333
334.75	0.0024443
335.00	0.0062881
335.25	0.0074639
335.50	0.0036735
335.75	0.0027273
336.00	0.0061836
336.25	0.0020586
336.50	0.0048722
336.75	0.0043398
337.00	0.0025218
337.25	0.0058989
337.50	-0.00011040
337.75	0.0029761
338.00	0.0023557
338.25	0.0063139
338.50	0.0013172
338.75	0.0038402
339.00	0.0045229
339.25	0.0071956
339.50	0.0039424
339.75	0.0069145
340.00	0.0023580
340.25	0.0044055
340.50	0.0025787
340.75	0.0058326
341.00	0.0022183
341.25	0.0012104
341.50	-0.00034345
341.75	0.0064677
342.00	0.0061466
342.25	0.00071847
342.50	0.0055309
342.75	0.00059578
343.00	0.00015141
343.25	0.0032115
343.50	-0.0018380
343.75	-0.00037163
344.00	0.0058056
344.25	0.0038995
344.50	0.0038074
344.75	-9.4386e-06
345.00	0.0046444
345.25	0.0050806
345.50	0.0013783
345.75	0.0049403
346.00	0.0048129
346.25	0.0055925
346.50	0.0054123
346.75	0.0045012
347.00	0.0035373
347.25	0.0024238
347.50	0.0028247
347.75	0.0035690
348.00	0.0044895
348.25	0.0034199
348.50	0.0060310
348.75	0.0012808
349.00	0.0051510
349.25	0.0036236
349.50	0.0022899
349.75	0.0053765
350.00	0.0030037
350.25	0.0028675
350.50	0.0091416
350.75	0.0030266
351.00	0.0025558
351.25	0.0034146
351.50	0.0047049
351.75	0.0026492
352.00	1.2273e-05
352.25	0.0067002
352.50	0.0060621
352.75	0.0019547
353.00	0.0056488
353.25	0.0028358
353.50	0.0049626
353.75	0.0043597
354.00	0.0043908
354.25	0.0047125
354.50	0.0046908
354.75	0.0058578
355.00	0.0033178
355.25	0.0019753
355.50	0.00044784
355.75	0.0046703
356.00	0.0058725
356.25	0.0023198
356.50	0.0029321
356.75	0.0068023
357.00	0.0043327
357.25	0.00035743
357.50	0.0036465
357.75	-0.00022313
358.00	0.0025816
358.25	0.0048053
358.50	0.0057786
358.75	0.0057832
359.00	0.0060081
359.25	0.0032567
359.50	0.0040275
359.75	0.0024296
360.00	0.0025576
360.25	0.0028088
360.50	0.0024173
360.75	0.0013653
361.00	0.0037563
361.25	-0.00026305
361.50	0.0031581
361.75	0.00026585
362.00	0.0046644
362.25	0.0019571
362.50	0.0033266
362.75	0.0014557
363.00	0.0042605
363.25	0.0039570
363.50	0.0022183
363.75	0.0042042
364.00	0.0053447
364.25	0.0045658
364.50	0.0024396
364.75	0.0012468
365.00	0.0033471
365.25	-0.00080429
365.50	0.0013841
365.75	0.00018249
366.00	0.0017986
366.25	0.0022347
366.50	0.0055766
366.75	0.0034416
367.00	0.0032438
367.25	0.0022447
367.50	0.00074368
367.75	-2.6488e-05
368.00	0.0044337
368.25	0.0014798
368.50	0.0034393
368.75	0.0019647
369.00	0.0028499
369.25	0.0012432
369.50	0.0027889
369.75	0.0032338
370.00	0.0046650
370.25	0.00012613
370.50	0.0031422
370.75	0.0020111
371.00	0.0053970
371.25	0.0018443
371.50	0.0040063
371.75	0.0028575
372.00	0.0030207
372.25	0.0013700
372.50	0.0016917
372.75	-0.00022315
373.00	-0.0019443
373.25	0.0017498
373.50	0.0014904
373.75	0.0016183
374.00	0.00095383
374.25	0.00064153
374.50	0.0031029
374.75	-0.00067867
375.00	0.0025840
375.25	0.0020604
375.50	0.0017657
375.75	0.00088103
376.00	0.0054381
376.25	0.0017005
376.50	0.0041002
376.75	0.0042722
377.00	-0.00018734
377.25	0.0032514
377.50	0.0020322
377.75	-6.7592e-05
378.00	0.0040932
378.25	0.0012890
378.50	0.0028875
378.75	0.0032796
379.00	0.0013911
379.25	0.0017481
379.50	0.0036019
379.75	0.0013260
380.00	0.0037521
380.25	0.0018813
380.50	0.0022470
380.75	0.00034977
381.00	0.0017897
381.25	0.0011781
381.50	0.0033841
381.75	0.00096732
382.00	0.0029972
382.25	0.0024560
382.50	-9.2839e-05
382.75	0.0049133
383.00	-0.0014923
383.25	0.0022194
383.50	-0.00057596
383.75	-9.5776e-05
384.00	0.0023832
384.25	0.0025552
384.50	0.0019611
384.75	0.00044252
385.00	-0.0020183
385.25	0.0017727
385.50	0.0022001
385.75	0.0017997
386.00	0.00066852
386.25	0.00060277
386.50	0.0034252
386.75	0.0031305
387.00	0.00088102
387.25	0.0022858
387.50	0.0032766
387.75	0.0013090
388.00	0.0011023
388.25	0.0020052
388.50	0.0019130
388.75	0.0031416
389.00	0.0011827
389.25	0.0015220
389.50	0.0030412
389.75	-7.9934e-05
390.00	5.6842e-05
390.25	0.0014792
390.50	0.00013668
390.75	0.0026685
391.00	-5.6454e-05
391.25	0.0022112
391.50	0.0026209
391.75	0.0011552
392.00	0.0015209
392.25	0.0023621
392.50	0.0038637
392.75	0.0018079
393.00	0.00073837
393.25	0.00076067
393.50	-0.00084600
393.75	0.0017475
394.00	0.0020251
394.25	-3.9435e-05
394.50	0.0014093
394.75	0.00036620
395.00	0.0012690
395.25	0.0030172
395.50	0.0010407
395.75	0.00035856
396.00	-0.00064935
396.25	0.0016976
396.50	0.0011299
396.75	0.00086164
397.00	0.0010248
397.25	-0.00041454
397.50	0.0017474
397.75	-0.00013219
398.00	0.0049620
398.25	0.0019905
398.50	0.0034657
398.75	0.0025106
399.00	0.00067496
399.25	-0.00053547
399.50	0.0017146
399.75	0.0012614
400.00	0.00078180
