Wavelength (nm)	D04 abs N
240.00	0.77289
240.25	0.78036
240.50	0.78183
240.75	0.77902
241.00	0.78262
241.25	0.78706
241.50	0.79207
241.75	0.78814
242.00	0.80200
242.25	0.80138
242.50	0.79917
242.75	0.80333
243.00	0.81429
243.25	0.80629
243.50	0.81286
243.75	0.81632
244.00	0.82858
244.25	0.83184
244.50	0.82838
244.75	0.83805
245.00	0.84515
245.25	0.85308
245.50	0.86215
245.75	0.86362
246.00	0.86742
246.25	0.87457
246.50	0.87019
246.75	0.87764
247.00	0.87280
247.25	0.86173
247.50	0.86001
247.75	0.85872
248.00	0.84601
248.25	0.83849
248.50	0.83753
248.75	0.82792
249.00	0.81669
249.25	0.82309
249.50	0.80183
249.75	0.79861
250.00	0.79414
250.25	0.78052
250.50	0.79098
250.75	0.78984
251.00	0.78373
251.25	0.77862
251.50	0.77745
251.75	0.77234
252.00	0.77512
252.25	0.77805
252.50	0.77428
252.75	0.77728
253.00	0.76671
253.25	0.77175
253.50	0.77113
253.75	0.76541
254.00	0.76336
254.25	0.75830
254.50	0.75750
254.75	0.75738
255.00	0.75365
255.25	0.75497
255.50	0.75466
255.75	0.75142
256.00	0.74849
256.25	0.75133
256.50	0.75052
256.75	0.75717
257.00	0.75887
257.25	0.77180
257.50	0.78722
257.75	0.78862
258.00	0.80444
258.25	0.82663
258.50	0.83634
258.75	0.85149
259.00	0.85531
259.25	0.85751
259.50	0.85429
259.75	0.83356
260.00	0.82047
260.25	0.80023
260.50	0.76850
260.75	0.73694
261.00	0.69528
261.25	0.66988
261.50	0.64088
261.75	0.60500
262.00	0.57773
262.25	0.55085
262.50	0.51684
262.75	0.49493
263.00	0.46899
263.25	0.45356
263.50	0.44426
263.75	0.42744
264.00	0.41550
264.25	0.40643
264.50	0.40463
264.75	0.39785
265.00	0.39547
265.25	0.39441
265.50	0.39189
265.75	0.38060
266.00	0.38179
266.25	0.38134
266.50	0.38396
266.75	0.38175
267.00	0.37854
267.25	0.38749
267.50	0.37836
267.75	0.38025
268.00	0.38739
268.25	0.38825
268.50	0.39035
268.75	0.39426
269.00	0.39393
269.25	0.40084
269.50	0.40752
269.75	0.40339
270.00	0.41560
270.25	0.41402
270.50	0.41372
270.75	0.41820
271.00	0.41453
271.25	0.41664
271.50	0.40624
271.75	0.41232
272.00	0.40576
272.25	0.40516
272.50	0.40622
272.75	0.40385
273.00	0.40591
273.25	0.41097
273.50	0.40910
273.75	0.40537
274.00	0.40916
274.25	0.40854
274.50	0.40488
274.75	0.39964
275.00	0.40178
275.25	0.40907
275.50	0.40193
275.75	0.40471
276.00	0.39957
276.25	0.39644
276.50	0.40339
276.75	0.40443
277.00	0.40571
277.25	0.40582
277.50	0.39991
277.75	0.41270
278.00	0.41567
278.25	0.41320
278.50	0.41366
278.75	0.42000
279.00	0.41305
279.25	0.41738
279.50	0.41812
279.75	0.41474
280.00	0.41499
280.25	0.43174
280.50	0.42440
280.75	0.42671
281.00	0.42766
281.25	0.43432
281.50	0.43774
281.75	0.43921
282.00	0.44085
282.25	0.45042
282.50	0.45788
282.75	0.46027
283.00	0.46844
283.25	0.47873
283.50	0.48571
283.75	0.49892
284.00	0.51299
284.25	0.52702
284.50	0.53806
284.75	0.55902
285.00	0.57999
285.25	0.59324
285.50	0.60531
285.75	0.62003
286.00	0.63164
286.25	0.63974
286.50	0.65444
286.75	0.65740
287.00	0.65408
287.25	0.64977
287.50	0.65163
287.75	0.63799
288.00	0.63367
288.25	0.62380
288.50	0.62016
288.75	0.61667
289.00	0.60470
289.25	0.60282
289.50	0.59038
289.75	0.58879
290.00	0.59030
290.25	0.57396
290.50	0.57709
290.75	0.57410
291.00	0.57215
291.25	0.56752
291.50	0.56954
291.75	0.55588
292.00	0.55681
292.25	0.54663
292.50	0.54337
292.75	0.53663
293.00	0.54078
293.25	0.52558
293.50	0.53290
293.75	0.53495
294.00	0.53097
294.25	0.53283
294.50	0.53810
294.75	0.53254
295.00	0.53226
295.25	0.53273
295.50	0.53067
295.75	0.53680
296.00	0.53789
296.25	0.53591
296.50	0.53187
296.75	0.54057
297.00	0.52766
297.25	0.53097
297.50	0.52252
297.75	0.52174
298.00	0.52126
298.25	0.50631
298.50	0.51048
298.75	0.50697
299.00	0.51690
299.25	0.50857
299.50	0.51989
299.75	0.51546
300.00	0.53072
300.25	0.53577
300.50	0.54281
300.75	0.55547
301.00	0.57655
301.25	0.59147
301.50	0.61317
301.75	0.64053
302.00	0.66966
302.25	0.69277
302.50	0.73152
302.75	0.75441
303.00	0.79204
303.25	0.83272
303.50	0.86302
303.75	0.88605
304.00	0.92954
304.25	0.97508
304.50	0.98119
304.75	0.99179
305.00	1.0000
305.25	0.99682
305.50	0.98188
305.75	0.97985
306.00	0.94919
306.25	0.91610
306.50	0.88873
306.75	0.85295
307.00	0.81046
307.25	0.78888
307.50	0.75765
307.75	0.72300
308.00	0.69213
308.25	0.66232
308.50	0.63932
308.75	0.61657
309.00	0.59304
309.25	0.57087
309.50	0.56269
309.75	0.54587
310.00	0.53141
310.25	0.51590
310.50	0.50290
310.75	0.49013
311.00	0.47242
311.25	0.46513
311.50	0.46282
311.75	0.45608
312.00	0.44127
312.25	0.43335
312.50	0.43383
312.75	0.41797
313.00	0.42468
313.25	0.41949
313.50	0.42092
313.75	0.41409
314.00	0.41538
314.25	0.42430
314.50	0.41557
314.75	0.42209
315.00	0.42309
315.25	0.42670
315.50	0.42617
315.75	0.42257
316.00	0.42137
316.25	0.41103
316.50	0.41177
316.75	0.40358
317.00	0.40327
317.25	0.39654
317.50	0.38612
317.75	0.38696
318.00	0.38742
318.25	0.37152
318.50	0.37864
318.75	0.37926
319.00	0.38157
319.25	0.37906
319.50	0.38455
319.75	0.38819
320.00	0.38953
320.25	0.39724
320.50	0.40293
320.75	0.41941
321.00	0.43059
321.25	0.45473
321.50	0.47271
321.75	0.48049
322.00	0.50239
322.25	0.52240
322.50	0.55062
322.75	0.57881
323.00	0.61368
323.25	0.63026
323.50	0.67096
323.75	0.70121
324.00	0.73591
324.25	0.78605
324.50	0.81003
324.75	0.83182
325.00	0.86062
325.25	0.88010
325.50	0.91004
325.75	0.90665
326.00	0.91861
326.25	0.91567
326.50	0.90708
326.75	0.88582
327.00	0.86318
327.25	0.81583
327.50	0.78067
327.75	0.74332
328.00	0.68727
328.25	0.63980
328.50	0.58591
328.75	0.53583
329.00	0.48002
329.25	0.43705
329.50	0.39697
329.75	0.35493
330.00	0.31405
330.25	0.28352
330.50	0.24278
330.75	0.22377
331.00	0.19490
331.25	0.16383
331.50	0.14614
331.75	0.13648
332.00	0.10952
332.25	0.10156
332.50	0.090179
332.75	0.080367
333.00	0.065234
333.25	0.062153
333.50	0.050660
333.75	0.047894
334.00	0.044400
334.25	0.041458
334.50	0.030228
334.75	0.033766
335.00	0.025199
335.25	0.022497
335.50	0.025643
335.75	0.017816
336.00	0.027570
336.25	0.019362
336.50	0.012875
336.75	0.0069080
337.00	0.018523
337.25	0.0088594
337.50	0.0074317
337.75	0.0079244
338.00	0.011003
338.25	0.0097493
338.50	0.0014464
338.75	0.012806
339.00	0.013799
339.25	0.0059646
339.50	0.0090767
339.75	0.0053810
340.00	0.0069801
340.25	0.0075750
340.50	0.0091170
340.75	-0.00050025
341.00	0.0045126
341.25	0.0053988
341.50	0.0076912
341.75	0.0056658
342.00	0.0026015
342.25	-0.0028338
342.50	0.0025444
342.75	0.0065417
343.00	-0.00054803
343.25	-0.00083750
343.50	-0.0030802
343.75	-0.0015111
344.00	0.0067740
344.25	0.0017574
344.50	-0.0027776
344.75	0.0069661
345.00	0.0083881
345.25	0.0020610
345.50	0.0037922
345.75	-0.0011438
346.00	-0.0041678
346.25	-0.0011242
346.50	-0.0010586
346.75	-0.00059862
347.00	0.0031383
347.25	0.0046578
347.50	0.0027982
347.75	0.00052648
348.00	-0.0026305
348.25	0.0019326
348.50	-8.0565e-05
348.75	-0.00071759
349.00	0.00062016
349.25	-0.00088153
349.50	-0.00051056
349.75	0.0090589
350.00	0.0044826
350.25	0.0086617
350.50	0.0041247
350.75	0.0073221
351.00	0.0040470
351.25	0.0047280
351.50	0.0027795
351.75	0.0012019
352.00	0.0018905
352.25	0.0043271
352.50	0.0059009
352.75	0.0043786
353.00	0.0036517
353.25	0.00034287
353.50	0.0054475
353.75	0.0072209
354.00	0.0019888
354.25	0.0070438
354.50	-0.0019101
354.75	0.0048386
355.00	0.00019298
355.25	-1.5926e-05
355.50	0.0030390
355.75	0.0032413
356.00	0.0033322
356.25	0.0010605
356.50	0.0017509
356.75	0.0035608
357.00	0.0043177
357.25	0.0042625
357.50	0.0027486
357.75	0.0036919
358.00	-0.00051337
358.25	0.0012319
358.50	0.0023504
358.75	0.0044826
359.00	0.0025425
359.25	-0.00017799
359.50	0.0034821
359.75	0.0043252
360.00	-0.0032694
360.25	0.0057417
360.50	0.0018811
360.75	0.0031598
361.00	-0.00062204
361.25	-0.0011485
361.50	0.0032610
361.75	0.0043927
362.00	0.00061548
362.25	0.0029238
362.50	-0.00062672
362.75	0.0015748
363.00	-0.0013490
363.25	0.00075319
363.50	0.0021612
363.75	0.0023917
364.00	-0.00041688
364.25	0.0014061
364.50	0.0027505
364.75	0.0041847
365.00	0.0017537
365.25	0.0013359
365.50	0.00066888
365.75	0.0015766
366.00	0.0054522
366.25	0.0022146
366.50	0.00020610
366.75	0.0029603
367.00	0.0016638
367.25	0.0033997
367.50	-0.0013284
367.75	-0.0010605
368.00	0.0018970
368.25	0.0013265
368.50	0.00032882
368.75	-0.00058457
369.00	0.0013958
369.25	0.0049641
369.50	0.0030259
369.75	-0.0028891
370.00	0.0042625
370.25	0.0052452
370.50	0.0011410
370.75	0.0048002
371.00	0.0019233
371.25	0.0026146
371.50	0.0044077
371.75	0.0014511
372.00	0.0035280
372.25	0.00066888
372.50	0.0024816
372.75	0.0049501
373.00	0.0052667
373.25	0.0023617
373.50	0.0011457
373.75	0.0033463
374.00	0.00068574
374.25	0.0030381
374.50	0.0055834
374.75	0.00013865
375.00	0.00025668
375.25	0.0010211
375.50	0.0032507
375.75	0.0045585
376.00	0.0034652
376.25	-0.0011560
376.50	0.0029003
376.75	0.00071665
377.00	-0.00031102
377.25	0.0013453
377.50	0.00025575
377.75	0.0018361
378.00	0.0032123
378.25	0.0020310
378.50	0.0018933
378.75	0.0011457
379.00	0.0012263
379.25	0.00041969
379.50	0.0019401
379.75	0.0011757
380.00	0.0011626
380.25	1.8736e-05
380.50	-0.00082907
380.75	0.0010324
381.00	0.0031954
381.25	0.0022249
381.50	0.0039458
381.75	0.0033004
382.00	0.0016544
382.25	-0.00021640
382.50	-8.6186e-05
382.75	0.0023195
383.00	0.00048058
383.25	0.0024123
383.50	-0.00094055
383.75	0.0020422
384.00	-0.00010117
384.25	0.0023898
384.50	0.0029940
384.75	0.0037079
385.00	-0.00035130
385.25	0.0034053
385.50	0.0014698
385.75	0.0028994
386.00	-1.1242e-05
386.25	0.0010895
386.50	4.0282e-05
386.75	0.00069042
387.00	0.0019673
387.25	0.0044629
387.50	0.0034072
387.75	0.0031036
388.00	0.0051749
388.25	0.0058363
388.50	0.00073539
388.75	0.0034755
389.00	0.0045388
389.25	0.0045510
389.50	0.0048611
389.75	-1.8739e-06
390.00	0.0027177
390.25	0.0036657
390.50	0.0040966
390.75	0.00044498
391.00	0.0028704
391.25	0.0031879
391.50	0.0011607
391.75	-0.0011495
392.00	0.0032348
392.25	-0.0010642
392.50	0.00078973
392.75	0.0026343
393.00	0.0054625
393.25	0.0010539
393.50	0.0034943
393.75	0.00057894
394.00	0.0023504
394.25	0.0041529
394.50	0.0038446
394.75	0.0017153
395.00	0.0010080
395.25	0.0022568
395.50	0.0026643
395.75	0.00082907
396.00	0.0016881
396.25	0.0026034
396.50	0.0028844
396.75	0.0030521
397.00	0.0023879
397.25	0.00052461
397.50	0.0051056
397.75	-0.00051431
398.00	0.0040995
398.25	0.0044002
398.50	0.0049604
398.75	0.0017612
399.00	0.0020235
399.25	0.0044395
399.50	0.0038165
399.75	0.0012328
400.00	9.3680e-05
