Wavelength (nm)	G17 abs N
200.00	0.67740
201.00	0.71294
202.00	0.70274
203.00	0.68318
204.00	0.65685
205.00	0.62649
206.00	0.59870
207.00	0.57075
208.00	0.54745
209.00	0.52497
210.00	0.50439
211.00	0.48700
212.00	0.47158
213.00	0.45857
214.00	0.44776
215.00	0.43913
216.00	0.43315
217.00	0.42853
218.00	0.42547
219.00	0.42306
220.00	0.42057
221.00	0.41734
222.00	0.41347
223.00	0.40925
224.00	0.40481
225.00	0.40145
226.00	0.39933
227.00	0.39954
228.00	0.40147
229.00	0.40265
230.00	0.40227
231.00	0.40092
232.00	0.40230
233.00	0.40974
234.00	0.42472
235.00	0.44766
236.00	0.47721
237.00	0.51266
238.00	0.55136
239.00	0.59194
240.00	0.63625
241.00	0.68315
242.00	0.73278
243.00	0.78692
244.00	0.83980
245.00	0.88906
246.00	0.93324
247.00	0.96813
248.00	0.99083
249.00	1.0000
250.00	0.99999
251.00	0.99842
252.00	0.99589
253.00	0.98679
254.00	0.95369
255.00	0.88976
256.00	0.79489
257.00	0.68173
258.00	0.56513
259.00	0.46111
260.00	0.37528
261.00	0.30816
262.00	0.25791
263.00	0.21971
264.00	0.19058
265.00	0.16873
266.00	0.15137
267.00	0.13799
268.00	0.12716
269.00	0.11807
270.00	0.11067
271.00	0.10443
272.00	0.098486
273.00	0.093033
274.00	0.088193
275.00	0.083470
276.00	0.079168
277.00	0.075077
278.00	0.071440
279.00	0.068365
280.00	0.065371
281.00	0.062629
282.00	0.060324
283.00	0.058266
284.00	0.056358
285.00	0.054602
286.00	0.053024
287.00	0.051517
288.00	0.050208
289.00	0.049178
290.00	0.048298
291.00	0.047323
292.00	0.046548
293.00	0.045705
294.00	0.045027
295.00	0.044603
296.00	0.044072
297.00	0.043921
298.00	0.043794
299.00	0.043925
300.00	0.044118
301.00	0.044719
302.00	0.045502
303.00	0.046311
304.00	0.047338
305.00	0.048766
306.00	0.049956
307.00	0.051473
308.00	0.053316
309.00	0.054862
310.00	0.056674
311.00	0.058761
312.00	0.060550
313.00	0.062700
314.00	0.064766
315.00	0.066993
316.00	0.069314
317.00	0.071339
318.00	0.073773
319.00	0.075875
320.00	0.078113
321.00	0.080332
322.00	0.082623
323.00	0.084668
324.00	0.086764
325.00	0.088593
326.00	0.090764
327.00	0.092591
328.00	0.094345
329.00	0.096091
330.00	0.097706
331.00	0.098978
332.00	0.10033
333.00	0.10134
334.00	0.10219
335.00	0.10294
336.00	0.10358
337.00	0.10415
338.00	0.10440
339.00	0.10458
340.00	0.10443
341.00	0.10431
342.00	0.10397
343.00	0.10366
344.00	0.10293
345.00	0.10226
346.00	0.10168
347.00	0.10069
348.00	0.099553
349.00	0.098450
350.00	0.097204
351.00	0.095965
352.00	0.094624
353.00	0.093298
354.00	0.091910
355.00	0.090712
356.00	0.089392
357.00	0.088000
358.00	0.086884
359.00	0.085747
360.00	0.084645
361.00	0.083614
362.00	0.082536
363.00	0.081748
364.00	0.080853
365.00	0.080340
366.00	0.080056
367.00	0.079539
368.00	0.079016
369.00	0.078764
370.00	0.078755
371.00	0.078759
372.00	0.079008
373.00	0.079456
374.00	0.079664
375.00	0.080256
376.00	0.080614
377.00	0.081514
378.00	0.082064
379.00	0.082799
380.00	0.083518
381.00	0.084355
382.00	0.085407
383.00	0.085879
384.00	0.086559
385.00	0.086980
386.00	0.087794
387.00	0.088837
388.00	0.089318
389.00	0.089877
390.00	0.090647
391.00	0.091318
392.00	0.091617
393.00	0.092035
394.00	0.092525
395.00	0.093055
396.00	0.093165
397.00	0.093340
398.00	0.093327
399.00	0.093467
400.00	0.093147
401.00	0.092994
402.00	0.093035
403.00	0.093278
404.00	0.092561
405.00	0.092310
406.00	0.092096
407.00	0.091392
408.00	0.090847
409.00	0.089745
410.00	0.088910
411.00	0.088205
412.00	0.087458
413.00	0.086353
414.00	0.085268
415.00	0.084387
416.00	0.083249
417.00	0.082070
418.00	0.080812
419.00	0.079542
420.00	0.078102
421.00	0.076387
422.00	0.074853
423.00	0.073786
424.00	0.072281
425.00	0.070776
426.00	0.069141
427.00	0.067039
428.00	0.065609
429.00	0.063983
430.00	0.062242
431.00	0.060600
432.00	0.059300
433.00	0.057353
434.00	0.055679
435.00	0.054106
436.00	0.052310
437.00	0.050970
438.00	0.049014
439.00	0.047558
440.00	0.045667
441.00	0.043910
442.00	0.042354
443.00	0.040889
444.00	0.039371
445.00	0.038188
446.00	0.036563
447.00	0.035142
448.00	0.033721
449.00	0.032318
450.00	0.030982
451.00	0.029650
452.00	0.028405
453.00	0.027066
454.00	0.025925
455.00	0.024940
456.00	0.023813
457.00	0.022475
458.00	0.021659
459.00	0.020536
460.00	0.020416
461.00	0.019146
462.00	0.018567
463.00	0.017583
464.00	0.016584
465.00	0.016192
466.00	0.015532
467.00	0.014828
468.00	0.014244
469.00	0.014122
470.00	0.013701
471.00	0.012813
472.00	0.012887
473.00	0.012238
474.00	0.012140
475.00	0.011521
476.00	0.011606
477.00	0.011185
478.00	0.010880
479.00	0.010426
480.00	0.010343
481.00	0.010144
482.00	0.0098641
483.00	0.0096430
484.00	0.0097869
485.00	0.0092901
486.00	0.0092585
487.00	0.0097489
488.00	0.0092750
489.00	0.0086204
490.00	0.0088955
491.00	0.0088567
492.00	0.0087681
493.00	0.0084904
494.00	0.0086005
495.00	0.0083663
496.00	0.0083748
497.00	0.0084144
498.00	0.0084870
499.00	0.0082963
500.00	0.0076636
501.00	0.0072821
502.00	0.0075598
503.00	0.0075552
504.00	0.0070825
505.00	0.0075653
506.00	0.0074357
507.00	0.0077333
508.00	0.0079903
509.00	0.0077729
510.00	0.0072234
511.00	0.0070973
512.00	0.0072125
513.00	0.0070002
514.00	0.0071791
515.00	0.0072682
516.00	0.0072226
517.00	0.0071867
518.00	0.0070749
519.00	0.0067947
520.00	0.0070040
521.00	0.0064933
522.00	0.0064030
523.00	0.0060249
524.00	0.0060873
525.00	0.0057181
526.00	0.0057159
527.00	0.0054885
528.00	0.0053475
529.00	0.0058016
530.00	0.0055573
531.00	0.0055252
532.00	0.0056459
533.00	0.0050150
534.00	0.0051817
535.00	0.0052602
536.00	0.0049922
537.00	0.0047913
538.00	0.0049441
539.00	0.0046621
540.00	0.0046621
541.00	0.0046765
542.00	0.0048407
543.00	0.0043608
544.00	0.0043844
545.00	0.0042469
546.00	0.0040780
547.00	0.0039544
548.00	0.0039856
549.00	0.0034775
550.00	0.0034433
551.00	0.0036628
552.00	0.0035699
553.00	0.0034382
554.00	0.0035893
555.00	0.0034188
556.00	0.0035585
557.00	0.0033648
558.00	0.0030985
559.00	0.0033673
560.00	0.0033766
561.00	0.0031500
562.00	0.0030985
563.00	0.0031762
564.00	0.0028584
565.00	0.0029310
566.00	0.0028259
567.00	0.0028010
568.00	0.0027039
569.00	0.0025258
570.00	0.0026089
571.00	0.0025802
572.00	0.0024359
573.00	0.0022460
574.00	0.0022591
575.00	0.0023515
576.00	0.0024743
577.00	0.0022152
578.00	0.0022511
579.00	0.0023587
580.00	0.0021574
581.00	0.0020911
582.00	0.0019810
583.00	0.0021152
584.00	0.0019042
585.00	0.0019590
586.00	0.0020324
587.00	0.0017261
588.00	0.0017472
589.00	0.0018506
590.00	0.0017387
591.00	0.0019320
592.00	0.0017256
593.00	0.0015931
594.00	0.0018468
595.00	0.0017328
596.00	0.0016374
597.00	0.0016083
598.00	0.0015307
599.00	0.0015429
600.00	0.0014990
