Wavelength (nm)	H06 abs N
220.00	0.47691
220.25	0.45321
220.50	0.42920
220.75	0.40740
221.00	0.38812
221.25	0.36981
221.50	0.35217
221.75	0.33887
222.00	0.32444
222.25	0.31400
222.50	0.30506
222.75	0.29491
223.00	0.28639
223.25	0.28104
223.50	0.27479
223.75	0.27229
224.00	0.26875
224.25	0.26806
224.50	0.26629
224.75	0.26500
225.00	0.26485
225.25	0.26468
225.50	0.26583
225.75	0.26696
226.00	0.26903
226.25	0.27068
226.50	0.27577
226.75	0.27777
227.00	0.28098
227.25	0.28354
227.50	0.28772
227.75	0.29024
228.00	0.29709
228.25	0.29921
228.50	0.30448
228.75	0.30891
229.00	0.31590
229.25	0.31688
229.50	0.32232
229.75	0.32642
230.00	0.33155
230.25	0.33816
230.50	0.34244
230.75	0.34763
231.00	0.35399
231.25	0.35865
231.50	0.36378
231.75	0.36663
232.00	0.37332
232.25	0.38001
232.50	0.38477
232.75	0.39140
233.00	0.39473
233.25	0.39961
233.50	0.40661
233.75	0.41246
234.00	0.41912
234.25	0.42577
234.50	0.43002
234.75	0.43874
235.00	0.44614
235.25	0.45133
235.50	0.45916
235.75	0.46894
236.00	0.47645
236.25	0.48288
236.50	0.48838
236.75	0.49247
237.00	0.50062
237.25	0.50681
237.50	0.51072
237.75	0.51617
238.00	0.52007
238.25	0.52670
238.50	0.52964
238.75	0.53480
239.00	0.53830
239.25	0.54290
239.50	0.54665
239.75	0.54946
240.00	0.55270
240.25	0.55371
240.50	0.55541
240.75	0.55648
241.00	0.55728
241.25	0.55895
241.50	0.56067
241.75	0.56172
242.00	0.56270
242.25	0.56038
242.50	0.56179
242.75	0.56082
243.00	0.56113
243.25	0.55886
243.50	0.55909
243.75	0.55930
244.00	0.55707
244.25	0.55581
244.50	0.55393
244.75	0.55638
245.00	0.55289
245.25	0.55495
245.50	0.55196
245.75	0.54865
246.00	0.54784
246.25	0.54846
246.50	0.54617
246.75	0.54547
247.00	0.54426
247.25	0.54458
247.50	0.54043
247.75	0.53966
248.00	0.54005
248.25	0.53811
248.50	0.53666
248.75	0.53535
249.00	0.53311
249.25	0.53120
249.50	0.53024
249.75	0.52774
250.00	0.52476
250.25	0.52168
250.50	0.51888
250.75	0.51786
251.00	0.51478
251.25	0.51021
251.50	0.50758
251.75	0.50277
252.00	0.49849
252.25	0.49497
252.50	0.49258
252.75	0.48528
253.00	0.48222
253.25	0.47865
253.50	0.47461
253.75	0.46862
254.00	0.46509
254.25	0.45879
254.50	0.45323
254.75	0.44933
255.00	0.44669
255.25	0.44202
255.50	0.43444
255.75	0.42829
256.00	0.42131
256.25	0.41622
256.50	0.40757
256.75	0.40114
257.00	0.39497
257.25	0.38608
257.50	0.37741
257.75	0.36898
258.00	0.36205
258.25	0.35268
258.50	0.34466
258.75	0.33575
259.00	0.32661
259.25	0.31937
259.50	0.30837
259.75	0.30028
260.00	0.28969
260.25	0.28039
260.50	0.27230
260.75	0.26165
261.00	0.25193
261.25	0.24247
261.50	0.23248
261.75	0.22286
262.00	0.21327
262.25	0.20394
262.50	0.19577
262.75	0.18601
263.00	0.17701
263.25	0.16846
263.50	0.16053
263.75	0.15409
264.00	0.14537
264.25	0.13873
264.50	0.13211
264.75	0.12575
265.00	0.12066
265.25	0.11445
265.50	0.10900
265.75	0.10470
266.00	0.099386
266.25	0.094731
266.50	0.090101
266.75	0.086763
267.00	0.084123
267.25	0.080949
267.50	0.077205
267.75	0.074183
268.00	0.071379
268.25	0.068751
268.50	0.066488
268.75	0.065583
269.00	0.062494
269.25	0.061487
269.50	0.059551
269.75	0.057718
270.00	0.056165
270.25	0.054435
270.50	0.053926
270.75	0.052912
271.00	0.051638
271.25	0.051207
271.50	0.049168
271.75	0.047821
272.00	0.048840
272.25	0.047365
272.50	0.046206
272.75	0.046534
273.00	0.046619
273.25	0.046152
273.50	0.046267
273.75	0.045618
274.00	0.046334
274.25	0.045612
274.50	0.046285
274.75	0.046097
275.00	0.045697
275.25	0.045648
275.50	0.046643
275.75	0.046813
276.00	0.047189
276.25	0.048088
276.50	0.047493
276.75	0.049053
277.00	0.048446
277.25	0.049235
277.50	0.048185
277.75	0.048197
278.00	0.048804
278.25	0.048476
278.50	0.048276
278.75	0.048009
279.00	0.047590
279.25	0.049465
279.50	0.047669
279.75	0.048549
280.00	0.047778
280.25	0.046929
280.50	0.044446
280.75	0.045223
281.00	0.044398
281.25	0.044028
281.50	0.042935
281.75	0.043202
282.00	0.042262
282.25	0.041625
282.50	0.040672
282.75	0.039379
283.00	0.038390
283.25	0.038803
283.50	0.037613
283.75	0.038511
284.00	0.038190
284.25	0.036794
284.50	0.037110
284.75	0.036399
285.00	0.037170
285.25	0.036375
285.50	0.036260
285.75	0.036630
286.00	0.037304
286.25	0.037055
286.50	0.038002
286.75	0.038627
287.00	0.038615
287.25	0.037631
287.50	0.039215
287.75	0.039792
288.00	0.039488
288.25	0.041582
288.50	0.042225
288.75	0.042159
289.00	0.042468
289.25	0.044932
289.50	0.044161
289.75	0.045563
290.00	0.046929
290.25	0.047475
290.50	0.050121
290.75	0.050072
291.00	0.049684
291.25	0.051310
291.50	0.052093
291.75	0.051638
292.00	0.053877
292.25	0.054363
292.50	0.055376
292.75	0.058034
293.00	0.058162
293.25	0.059964
293.50	0.059843
293.75	0.061803
294.00	0.062646
294.25	0.062513
294.50	0.064091
294.75	0.065869
295.00	0.065213
295.25	0.065978
295.50	0.067107
295.75	0.068897
296.00	0.069941
296.25	0.071846
296.50	0.072065
296.75	0.073831
297.00	0.075639
297.25	0.077884
297.50	0.079311
297.75	0.078801
298.00	0.081702
298.25	0.083219
298.50	0.084621
298.75	0.085853
299.00	0.087012
299.25	0.089852
299.50	0.089579
299.75	0.090877
300.00	0.093086
300.25	0.095386
300.50	0.096685
300.75	0.096940
301.00	0.097935
301.25	0.098123
301.50	0.099829
301.75	0.10138
302.00	0.10182
302.25	0.10309
302.50	0.10382
302.75	0.10419
303.00	0.10579
303.25	0.10545
303.50	0.10438
303.75	0.10762
304.00	0.10650
304.25	0.10741
304.50	0.10650
304.75	0.10841
305.00	0.10829
305.25	0.10921
305.50	0.10843
305.75	0.10880
306.00	0.10912
306.25	0.10930
306.50	0.11129
306.75	0.11153
307.00	0.11140
307.25	0.11103
307.50	0.11146
307.75	0.11360
308.00	0.11294
308.25	0.11398
308.50	0.11518
308.75	0.11589
309.00	0.11644
309.25	0.11653
309.50	0.11817
309.75	0.11928
310.00	0.11815
310.25	0.12043
310.50	0.12509
310.75	0.12157
311.00	0.12777
311.25	0.12691
311.50	0.12933
311.75	0.12870
312.00	0.12629
312.25	0.12643
312.50	0.13134
312.75	0.13335
313.00	0.13537
313.25	0.13736
313.50	0.13591
313.75	0.13839
314.00	0.13642
314.25	0.13806
314.50	0.13710
314.75	0.13523
315.00	0.13730
315.25	0.14043
315.50	0.14194
315.75	0.14083
316.00	0.13741
316.25	0.13523
316.50	0.13239
316.75	0.13457
317.00	0.13717
317.25	0.13435
317.50	0.13504
317.75	0.13387
318.00	0.13180
318.25	0.13406
318.50	0.13041
318.75	0.13016
319.00	0.13219
319.25	0.13693
319.50	0.13170
319.75	0.13067
320.00	0.13545
320.25	0.12997
320.50	0.13618
320.75	0.13467
321.00	0.13215
321.25	0.13560
321.50	0.13753
321.75	0.13673
322.00	0.13897
322.25	0.13971
322.50	0.13771
322.75	0.13886
323.00	0.14534
323.25	0.14795
323.50	0.14952
323.75	0.15061
324.00	0.15344
324.25	0.15468
324.50	0.15259
324.75	0.15626
325.00	0.16216
325.25	0.16403
325.50	0.16379
325.75	0.16717
326.00	0.16546
326.25	0.16741
326.50	0.17342
326.75	0.18149
327.00	0.18058
327.25	0.18300
327.50	0.18906
327.75	0.18712
328.00	0.19337
328.25	0.19416
328.50	0.19772
328.75	0.20254
329.00	0.20274
329.25	0.20988
329.50	0.21101
329.75	0.21303
330.00	0.21927
330.25	0.22217
330.50	0.22809
330.75	0.23308
331.00	0.23471
331.25	0.23820
331.50	0.23844
331.75	0.24576
332.00	0.25088
332.25	0.25540
332.50	0.25946
332.75	0.26162
333.00	0.26672
333.25	0.26816
333.50	0.27228
333.75	0.28094
334.00	0.28290
334.25	0.28758
334.50	0.29056
334.75	0.29213
335.00	0.29455
335.25	0.29753
335.50	0.30459
335.75	0.30593
336.00	0.31127
336.25	0.31951
336.50	0.31894
336.75	0.32547
337.00	0.33646
337.25	0.33926
337.50	0.34132
337.75	0.34861
338.00	0.35250
338.25	0.35479
338.50	0.36054
338.75	0.36884
339.00	0.37449
339.25	0.38118
339.50	0.38732
339.75	0.38772
340.00	0.39565
340.25	0.40183
340.50	0.40566
340.75	0.41354
341.00	0.42043
341.25	0.42119
341.50	0.43179
341.75	0.43423
342.00	0.43884
342.25	0.44601
342.50	0.45181
342.75	0.46052
343.00	0.46591
343.25	0.47104
343.50	0.47619
343.75	0.48185
344.00	0.48593
344.25	0.49002
344.50	0.49378
344.75	0.49704
345.00	0.50936
345.25	0.51385
345.50	0.51548
345.75	0.52475
346.00	0.53253
346.25	0.53382
346.50	0.54385
346.75	0.54793
347.00	0.55402
347.25	0.56267
347.50	0.57021
347.75	0.57133
348.00	0.57766
348.25	0.58804
348.50	0.58829
348.75	0.59807
349.00	0.60960
349.25	0.60935
349.50	0.61647
349.75	0.62146
350.00	0.62909
350.25	0.63364
350.50	0.63437
350.75	0.64523
351.00	0.65119
351.25	0.65714
351.50	0.66558
351.75	0.67003
352.00	0.67852
352.25	0.68087
352.50	0.68712
352.75	0.69556
353.00	0.70309
353.25	0.70683
353.50	0.70730
353.75	0.71482
354.00	0.72369
354.25	0.72937
354.50	0.73411
354.75	0.74103
355.00	0.74602
355.25	0.75191
355.50	0.76032
355.75	0.76527
356.00	0.77377
356.25	0.78067
356.50	0.78987
356.75	0.79571
357.00	0.79741
357.25	0.80640
357.50	0.80678
357.75	0.81295
358.00	0.82057
358.25	0.81959
358.50	0.82727
358.75	0.82925
359.00	0.83531
359.25	0.84521
359.50	0.84513
359.75	0.85572
360.00	0.85434
360.25	0.85738
360.50	0.86657
360.75	0.87455
361.00	0.87659
361.25	0.87640
361.50	0.88409
361.75	0.88753
362.00	0.89378
362.25	0.89803
362.50	0.90019
362.75	0.90239
363.00	0.90745
363.25	0.91481
363.50	0.91772
363.75	0.91713
364.00	0.91511
364.25	0.91968
364.50	0.93197
364.75	0.92390
365.00	0.93453
365.25	0.94289
365.50	0.94363
365.75	0.94211
366.00	0.94272
366.25	0.95389
366.50	0.95281
366.75	0.94912
367.00	0.95987
367.25	0.95729
367.50	0.95880
367.75	0.96678
368.00	0.96406
368.25	0.96937
368.50	0.96830
368.75	0.97268
369.00	0.96874
369.25	0.97097
369.50	0.97921
369.75	0.97467
370.00	0.98137
370.25	0.98507
370.50	0.97974
370.75	0.97872
371.00	0.98588
371.25	0.98464
371.50	0.98933
371.75	0.98704
372.00	0.98782
372.25	0.99396
372.50	0.98263
372.75	0.99075
373.00	0.98709
373.25	1.00000
373.50	0.98808
373.75	0.99015
374.00	0.99344
374.25	0.99298
374.50	0.98914
374.75	0.99212
375.00	0.99975
375.25	0.99334
375.50	0.99287
375.75	0.99168
376.00	0.98407
376.25	0.99279
376.50	0.99426
376.75	0.99157
377.00	0.98839
377.25	0.98684
377.50	0.98616
377.75	0.98694
378.00	0.98135
378.25	0.98207
378.50	0.98115
378.75	0.97927
379.00	0.97593
379.25	0.97077
379.50	0.97294
379.75	0.96785
380.00	0.96533
380.25	0.96114
380.50	0.95747
380.75	0.95447
381.00	0.95201
381.25	0.94523
381.50	0.94440
381.75	0.94064
382.00	0.93498
382.25	0.92757
382.50	0.91877
382.75	0.92067
383.00	0.91579
383.25	0.91264
383.50	0.90661
383.75	0.90349
384.00	0.89418
384.25	0.88651
384.50	0.87586
384.75	0.87376
385.00	0.86974
385.25	0.85950
385.50	0.85756
385.75	0.84524
386.00	0.83525
386.25	0.83554
386.50	0.82492
386.75	0.81761
387.00	0.81229
387.25	0.80206
387.50	0.79488
387.75	0.78295
388.00	0.77619
388.25	0.76802
388.50	0.75620
388.75	0.74938
389.00	0.73988
389.25	0.73067
389.50	0.72165
389.75	0.71117
390.00	0.70646
390.25	0.69015
390.50	0.67915
390.75	0.67301
391.00	0.66142
391.25	0.65391
391.50	0.63973
391.75	0.63013
392.00	0.61969
392.25	0.61189
392.50	0.60119
392.75	0.59460
393.00	0.58127
393.25	0.57346
393.50	0.55960
393.75	0.55160
394.00	0.54225
394.25	0.53326
394.50	0.52363
394.75	0.51187
395.00	0.49695
395.25	0.48840
395.50	0.47663
395.75	0.46583
396.00	0.45388
396.25	0.44238
396.50	0.43316
396.75	0.42322
397.00	0.41541
397.25	0.40584
397.50	0.39542
397.75	0.38798
398.00	0.37821
398.25	0.37080
398.50	0.36366
398.75	0.35572
399.00	0.34708
399.25	0.33838
399.50	0.32895
399.75	0.32295
400.00	0.31495
400.25	0.30846
400.50	0.30001
400.75	0.29258
401.00	0.28521
401.25	0.27797
401.50	0.27014
401.75	0.26394
402.00	0.25565
402.25	0.25069
402.50	0.24481
402.75	0.23635
403.00	0.23239
403.25	0.22474
403.50	0.21860
403.75	0.21153
404.00	0.20591
404.25	0.20139
404.50	0.19455
404.75	0.18968
405.00	0.18374
405.25	0.17829
405.50	0.17492
405.75	0.16917
406.00	0.16377
406.25	0.16090
406.50	0.15305
406.75	0.14975
407.00	0.14458
407.25	0.14046
407.50	0.13556
407.75	0.13180
408.00	0.12682
408.25	0.12331
408.50	0.11851
408.75	0.11533
409.00	0.11244
409.25	0.10768
409.50	0.10507
409.75	0.099119
410.00	0.097972
410.25	0.094385
410.50	0.090155
410.75	0.088329
411.00	0.084827
411.25	0.084184
411.50	0.079839
411.75	0.075524
412.00	0.071895
412.25	0.071488
412.50	0.068181
412.75	0.065213
413.00	0.063550
413.25	0.061159
413.50	0.058149
413.75	0.056505
414.00	0.054181
414.25	0.052439
414.50	0.050157
414.75	0.049210
415.00	0.047717
415.25	0.045581
415.50	0.044246
415.75	0.042856
416.00	0.041078
416.25	0.040126
416.50	0.037292
416.75	0.036363
417.00	0.035149
417.25	0.032127
417.50	0.033389
417.75	0.031199
418.00	0.029050
418.25	0.030507
418.50	0.025798
418.75	0.024651
419.00	0.024317
419.25	0.023674
419.50	0.021871
419.75	0.021143
420.00	0.019535
420.25	0.019978
420.50	0.018036
420.75	0.017465
421.00	0.016919
421.25	0.016179
421.50	0.013721
421.75	0.014243
422.00	0.014735
422.25	0.012374
422.50	0.012192
422.75	0.011081
423.00	0.010863
423.25	0.012083
423.50	0.010371
423.75	0.0097340
424.00	0.0089269
424.25	0.0093760
424.50	0.0092000
424.75	0.0083747
425.00	0.0080288
425.25	0.0084475
425.50	0.0066633
425.75	0.0052008
426.00	0.0059290
426.25	0.0060565
426.50	0.0056499
426.75	0.0052433
427.00	0.0050248
427.25	0.0057045
427.50	0.0036836
427.75	0.0055224
428.00	0.0044301
428.25	0.0040113
428.50	0.0028887
428.75	0.0041873
429.00	0.0037443
429.25	0.0035077
429.50	0.0035077
429.75	0.0037807
430.00	0.0024639
430.25	0.0037201
430.50	0.0023485
430.75	0.0019177
431.00	0.0028705
431.25	0.0012380
431.50	0.0014443
431.75	0.0026034
432.00	0.0028826
432.25	0.0014686
432.50	0.0030464
432.75	0.0027066
433.00	0.0017599
433.25	0.0029554
433.50	0.00075858
433.75	0.00089209
434.00	0.0018024
434.25	0.0016021
434.50	0.0014807
434.75	0.0015232
435.00	0.00040053
435.25	0.0022939
435.50	0.0019602
435.75	0.0013169
436.00	0.00052797
436.25	0.0010741
436.50	0.00088602
436.75	0.00068575
437.00	-0.00013351
437.25	0.0019905
437.50	0.00066755
437.75	0.0014079
438.00	0.0014018
438.25	0.00081319
438.50	0.00097098
438.75	-0.00062507
439.00	0.00067362
439.25	0.00054617
439.50	0.00084960
439.75	0.0016021
440.00	0.0015172
440.25	0.00050976
440.50	0.00038839
440.75	0.0016567
441.00	0.0013230
441.25	-0.00044908
441.50	0.00085567
441.75	-0.00015171
442.00	0.00090422
442.25	-0.00078285
442.50	0.0016021
442.75	0.00054011
443.00	0.0011834
443.25	0.00029736
443.50	5.4618e-05
443.75	0.00091029
444.00	0.0030282
444.25	0.00087388
444.50	0.00027916
444.75	0.00078892
445.00	6.6755e-05
445.25	-0.00044908
445.50	0.00063114
445.75	-0.00069182
446.00	-0.00059472
446.25	0.00069182
446.50	0.0010377
446.75	0.0018388
447.00	0.0021119
447.25	0.00059472
447.50	0.0010074
447.75	0.0015111
448.00	0.00069182
448.25	0.00021847
448.50	0.0018813
448.75	0.0010802
449.00	0.00014565
449.25	0.00066755
449.50	0.0013351
449.75	0.00020026
450.00	0.00098311
450.25	0.0025488
450.50	0.00074037
450.75	0.0017781
451.00	0.00010924
451.25	0.0011348
451.50	0.00067968
451.75	0.00025488
452.00	0.0017902
452.25	0.0023121
452.50	0.00084960
452.75	0.0014747
453.00	0.00039446
453.25	0.00013958
453.50	0.00078285
453.75	0.00050976
454.00	0.00033984
454.25	0.0014322
454.50	0.0018631
454.75	7.8892e-05
455.00	0.0010013
455.25	0.0011288
455.50	0.0017235
455.75	0.0013472
456.00	0.0029736
456.25	0.0010256
456.50	0.00064934
456.75	0.0018934
457.00	0.0016749
457.25	0.0018388
457.50	0.0012501
457.75	0.00084354
458.00	0.00069182
458.25	0.00040660
458.50	0.0016749
458.75	0.00071003
459.00	0.0017660
459.25	0.0014383
459.50	0.0023364
459.75	0.0023182
460.00	0.00081926
460.25	0.0033620
460.50	0.0011773
460.75	0.0020755
461.00	0.0010741
461.25	0.0016082
461.50	0.0025124
461.75	0.0024396
462.00	0.0013108
462.25	0.0017417
462.50	0.0022211
462.75	0.00063114
463.00	0.0023789
463.25	0.0012987
463.50	0.0020573
463.75	0.0020937
464.00	0.0023182
464.25	0.0014868
464.50	0.00093457
464.75	0.0027005
465.00	0.0022939
465.25	0.0026095
465.50	0.0021604
465.75	0.0024274
466.00	0.0023728
466.25	0.0027976
466.50	0.0025731
466.75	0.0018873
467.00	0.0025063
467.25	0.0020633
467.50	0.0019420
467.75	0.0015232
468.00	0.00076464
468.25	0.0035805
468.50	0.0017538
468.75	0.0019480
469.00	0.0015050
469.25	0.0020694
469.50	0.0028765
469.75	0.0022029
470.00	0.0026156
470.25	0.0027066
470.50	0.0018752
470.75	0.0023850
471.00	0.0025306
471.25	0.0032528
471.50	0.0018024
471.75	0.0028947
472.00	0.0020573
472.25	0.0016931
472.50	0.0026034
472.75	0.0017113
473.00	0.0044301
473.25	0.0026459
473.50	0.0018691
473.75	0.0031375
474.00	0.0022454
474.25	0.0026156
474.50	0.0035319
474.75	0.0033135
475.00	0.0030464
475.25	0.0019966
475.50	0.0042662
475.75	0.0022939
476.00	0.0024396
476.25	0.0040963
476.50	0.0029736
476.75	0.0030464
477.00	0.0025367
477.25	0.0024881
477.50	0.0021361
477.75	0.0035016
478.00	0.0029129
478.25	0.0035077
478.50	0.0022272
478.75	0.0041024
479.00	0.0020937
479.25	0.0040781
479.50	0.0033559
479.75	0.0025427
480.00	0.0034773
480.25	0.0020997
480.50	0.0031071
480.75	0.0025063
481.00	0.0027551
481.25	0.0042359
481.50	0.0021301
481.75	0.0027309
482.00	0.0028219
482.25	0.0030040
482.50	0.0024456
482.75	0.0027612
483.00	0.0018327
483.25	0.0032042
483.50	0.0029433
483.75	0.0028644
484.00	0.0037079
484.25	0.0034470
484.50	0.0040113
484.75	0.0029251
485.00	0.0031253
485.25	0.0038718
485.50	0.0023121
485.75	0.0023607
486.00	0.0039203
486.25	0.0033984
486.50	0.0030404
486.75	0.0029675
487.00	0.0039628
487.25	0.0018024
487.50	0.0026459
487.75	0.0033984
488.00	0.0039507
488.25	0.0027248
488.50	0.0039567
488.75	0.0038050
489.00	0.0019420
489.25	0.0038354
489.50	0.0025063
489.75	0.0026884
490.00	0.0021665
490.25	0.0032710
490.50	0.0025549
490.75	0.0020026
491.00	0.0023061
491.25	0.0028765
491.50	0.0037686
491.75	0.0040296
492.00	0.0028219
492.25	0.0041570
492.50	0.0011530
492.75	0.0026580
493.00	0.0026277
493.25	0.0031193
493.50	0.0030829
493.75	0.0029433
494.00	0.0031132
494.25	0.0037383
494.50	0.0032042
494.75	0.0037383
495.00	0.0032467
495.25	0.0031011
495.50	0.0028644
495.75	0.0042177
496.00	0.0027066
496.25	0.0037868
496.50	0.0043391
496.75	0.0047153
497.00	0.0034288
497.25	0.0041206
497.50	0.0040538
497.75	0.0019723
498.00	0.0024092
498.25	0.0033984
498.50	0.0032346
498.75	0.0022150
499.00	0.0035259
499.25	0.0025549
499.50	0.0040356
499.75	0.0040356
500.00	0.0033559
