Wavelength (nm)	I17 abs N
220.00	0.15122
220.25	0.15042
220.50	0.15035
220.75	0.14948
221.00	0.14635
221.25	0.14651
221.50	0.14525
221.75	0.14427
222.00	0.14276
222.25	0.14309
222.50	0.14000
222.75	0.13802
223.00	0.13728
223.25	0.13731
223.50	0.13594
223.75	0.13516
224.00	0.13266
224.25	0.13364
224.50	0.13113
224.75	0.13227
225.00	0.13141
225.25	0.13127
225.50	0.13070
225.75	0.12993
226.00	0.12921
226.25	0.12993
226.50	0.13124
226.75	0.13112
227.00	0.13002
227.25	0.13023
227.50	0.13382
227.75	0.13258
228.00	0.13106
228.25	0.13394
228.50	0.13628
228.75	0.13601
229.00	0.13722
229.25	0.13767
229.50	0.13834
229.75	0.13846
230.00	0.14044
230.25	0.14320
230.50	0.14433
230.75	0.14542
231.00	0.14759
231.25	0.14931
231.50	0.15099
231.75	0.15085
232.00	0.15350
232.25	0.15478
232.50	0.15776
232.75	0.15786
233.00	0.16012
233.25	0.16085
233.50	0.16277
233.75	0.16632
234.00	0.16741
234.25	0.16870
234.50	0.17209
234.75	0.17247
235.00	0.17427
235.25	0.17555
235.50	0.17824
235.75	0.17969
236.00	0.18118
236.25	0.18567
236.50	0.18627
236.75	0.18818
237.00	0.18940
237.25	0.19182
237.50	0.19099
237.75	0.19258
238.00	0.19321
238.25	0.19382
238.50	0.19477
238.75	0.19541
239.00	0.19584
239.25	0.19665
239.50	0.19575
239.75	0.19665
240.00	0.19684
240.25	0.19751
240.50	0.19867
240.75	0.19868
241.00	0.19895
241.25	0.19928
241.50	0.19935
241.75	0.20143
242.00	0.20215
242.25	0.20483
242.50	0.20450
242.75	0.20554
243.00	0.20620
243.25	0.20600
243.50	0.20414
243.75	0.20480
244.00	0.20387
244.25	0.20391
244.50	0.20214
244.75	0.20232
245.00	0.20216
245.25	0.20150
245.50	0.20039
245.75	0.20028
246.00	0.20188
246.25	0.20235
246.50	0.20347
246.75	0.20332
247.00	0.20637
247.25	0.20816
247.50	0.21040
247.75	0.21325
248.00	0.21639
248.25	0.21913
248.50	0.22038
248.75	0.22412
249.00	0.22427
249.25	0.22260
249.50	0.22221
249.75	0.22324
250.00	0.22382
250.25	0.22537
250.50	0.22573
250.75	0.22684
251.00	0.22732
251.25	0.22852
251.50	0.22823
251.75	0.23125
252.00	0.23319
252.25	0.23561
252.50	0.23728
252.75	0.24025
253.00	0.24505
253.25	0.25007
253.50	0.25272
253.75	0.25884
254.00	0.26191
254.25	0.26458
254.50	0.26557
254.75	0.26736
255.00	0.26626
255.25	0.26646
255.50	0.26467
255.75	0.26656
256.00	0.26537
256.25	0.26604
256.50	0.26565
256.75	0.26792
257.00	0.26801
257.25	0.26937
257.50	0.27008
257.75	0.27328
258.00	0.27450
258.25	0.27640
258.50	0.27951
258.75	0.28031
259.00	0.28247
259.25	0.28721
259.50	0.28947
259.75	0.29243
260.00	0.29622
260.25	0.29581
260.50	0.29591
260.75	0.29198
261.00	0.28927
261.25	0.28640
261.50	0.28097
261.75	0.27437
262.00	0.27076
262.25	0.26492
262.50	0.25773
262.75	0.25049
263.00	0.24413
263.25	0.23724
263.50	0.23102
263.75	0.22299
264.00	0.21711
264.25	0.20964
264.50	0.20190
264.75	0.19495
265.00	0.18852
265.25	0.18211
265.50	0.17517
265.75	0.16991
266.00	0.16469
266.25	0.15755
266.50	0.15257
266.75	0.14987
267.00	0.14419
267.25	0.14015
267.50	0.13640
267.75	0.13255
268.00	0.12834
268.25	0.12477
268.50	0.12194
268.75	0.11901
269.00	0.11679
269.25	0.11190
269.50	0.11109
269.75	0.10856
270.00	0.10630
270.25	0.10425
270.50	0.10113
270.75	0.10088
271.00	0.099124
271.25	0.099384
271.50	0.099569
271.75	0.096596
272.00	0.095288
272.25	0.094055
272.50	0.093575
272.75	0.092767
273.00	0.091294
273.25	0.089547
273.50	0.090581
273.75	0.087765
274.00	0.089067
274.25	0.087546
274.50	0.088081
274.75	0.088855
275.00	0.088087
275.25	0.088272
275.50	0.087396
275.75	0.086834
276.00	0.086875
276.25	0.088156
276.50	0.088279
276.75	0.088574
277.00	0.086957
277.25	0.087670
277.50	0.086046
277.75	0.088231
278.00	0.088046
278.25	0.086820
278.50	0.088231
278.75	0.087464
279.00	0.087937
279.25	0.088841
279.50	0.088690
279.75	0.086710
280.00	0.088471
280.25	0.089485
280.50	0.090478
280.75	0.089355
281.00	0.090047
281.25	0.090163
281.50	0.090061
281.75	0.090567
282.00	0.091040
282.25	0.090170
282.50	0.091986
282.75	0.091828
283.00	0.092198
283.25	0.092191
283.50	0.092253
283.75	0.092335
284.00	0.093205
284.25	0.093685
284.50	0.094644
284.75	0.094068
285.00	0.094349
285.25	0.094726
285.50	0.094342
285.75	0.094664
286.00	0.094527
286.25	0.096692
286.50	0.096171
286.75	0.097014
287.00	0.095658
287.25	0.096151
287.50	0.094733
287.75	0.096630
288.00	0.097144
288.25	0.096439
288.50	0.095904
288.75	0.095116
289.00	0.097062
289.25	0.097069
289.50	0.097781
289.75	0.099521
290.00	0.097226
290.25	0.097213
290.50	0.097713
290.75	0.096706
291.00	0.097959
291.25	0.098083
291.50	0.097281
291.75	0.096685
292.00	0.097124
292.25	0.096151
292.50	0.096781
292.75	0.097014
293.00	0.096596
293.25	0.097665
293.50	0.096726
293.75	0.099172
294.00	0.097199
294.25	0.099014
294.50	0.098912
294.75	0.097870
295.00	0.098713
295.25	0.098823
295.50	0.097548
295.75	0.098158
296.00	0.097432
296.25	0.097418
296.50	0.097370
296.75	0.096761
297.00	0.096856
297.25	0.098788
297.50	0.096473
297.75	0.098049
298.00	0.097151
298.25	0.097514
298.50	0.096014
298.75	0.097268
299.00	0.095384
299.25	0.097131
299.50	0.096178
299.75	0.095014
300.00	0.095020
300.25	0.093931
300.50	0.092931
300.75	0.093061
301.00	0.092657
301.25	0.093054
301.50	0.093164
301.75	0.091020
302.00	0.090492
302.25	0.090759
302.50	0.090198
302.75	0.088896
303.00	0.088512
303.25	0.087594
303.50	0.086861
303.75	0.087252
304.00	0.086279
304.25	0.085416
304.50	0.083778
304.75	0.082675
305.00	0.082627
305.25	0.082162
305.50	0.082223
305.75	0.079764
306.00	0.080675
306.25	0.079161
306.50	0.079634
306.75	0.077935
307.00	0.077277
307.25	0.077476
307.50	0.077489
307.75	0.076900
308.00	0.077674
308.25	0.075845
308.50	0.074955
308.75	0.075612
309.00	0.075098
309.25	0.074756
309.50	0.073071
309.75	0.073516
310.00	0.073934
310.25	0.076791
310.50	0.069227
310.75	0.071502
311.00	0.071687
311.25	0.070625
311.50	0.069186
311.75	0.068878
312.00	0.065959
312.25	0.069008
312.50	0.070433
312.75	0.069995
313.00	0.071029
313.25	0.067939
313.50	0.067508
313.75	0.064212
314.00	0.064363
314.25	0.067069
314.50	0.066028
314.75	0.069981
315.00	0.057458
315.25	0.058595
315.50	0.060417
315.75	0.060075
316.00	0.058759
316.25	0.058355
316.50	0.050374
316.75	0.051977
317.00	0.051525
317.25	0.051306
317.50	0.050840
317.75	0.052388
318.00	0.046291
318.25	0.044701
318.50	0.051175
318.75	0.043735
319.00	0.039988
319.25	0.046592
319.50	0.043852
319.75	0.043797
320.00	0.044633
320.25	0.041249
320.50	0.037138
320.75	0.035741
321.00	0.038474
321.25	0.036652
321.50	0.036104
321.75	0.031014
322.00	0.033391
322.25	0.038563
322.50	0.032514
322.75	0.034240
323.00	0.028540
323.25	0.029863
323.50	0.028588
323.75	0.033089
324.00	0.023012
324.25	0.030438
324.50	0.031699
324.75	0.026369
325.00	0.027506
325.25	0.024245
325.50	0.030191
325.75	0.024807
326.00	0.024450
326.25	0.019182
326.50	0.024951
326.75	0.023964
327.00	0.025567
327.25	0.023656
327.50	0.021648
327.75	0.022710
328.00	0.020689
328.25	0.025752
328.50	0.023478
328.75	0.024355
329.00	0.026321
329.25	0.021854
329.50	0.020977
329.75	0.024026
330.00	0.021854
330.25	0.021409
330.50	0.021546
330.75	0.021285
331.00	0.020306
331.25	0.016106
331.50	0.018723
331.75	0.016305
332.00	0.020463
332.25	0.019285
332.50	0.021299
332.75	0.017737
333.00	0.020772
333.25	0.020265
333.50	0.022978
333.75	0.020333
334.00	0.019860
334.25	0.016113
334.50	0.017839
334.75	0.019689
335.00	0.015339
335.25	0.016284
335.50	0.017949
335.75	0.016325
336.00	0.015202
336.25	0.019477
336.50	0.018319
336.75	0.017709
337.00	0.015771
337.25	0.021820
337.50	0.015373
337.75	0.020737
338.00	0.018682
338.25	0.016401
338.50	0.017545
338.75	0.017319
339.00	0.015538
339.25	0.014921
339.50	0.014709
339.75	0.014928
340.00	0.017682
340.25	0.017154
340.50	0.016319
340.75	0.017312
341.00	0.015627
341.25	0.016086
341.50	0.015462
341.75	0.015935
342.00	0.016490
342.25	0.018655
342.50	0.017141
342.75	0.016367
343.00	0.017209
343.25	0.015620
343.50	0.015264
343.75	0.012626
344.00	0.017894
344.25	0.015572
344.50	0.015380
344.75	0.014325
345.00	0.014688
345.25	0.016613
345.50	0.019895
345.75	0.018340
346.00	0.015839
346.25	0.014537
346.50	0.016894
346.75	0.015106
347.00	0.019189
347.25	0.014147
347.50	0.014976
347.75	0.015092
348.00	0.017435
348.25	0.013845
348.50	0.016942
348.75	0.014277
349.00	0.011742
349.25	0.013715
349.50	0.016565
349.75	0.011783
350.00	0.014565
350.25	0.014791
350.50	0.014256
350.75	0.013154
351.00	0.013873
351.25	0.015017
351.50	0.013558
351.75	0.014640
352.00	0.014626
352.25	0.013017
352.50	0.015024
352.75	0.013530
353.00	0.012516
353.25	0.016031
353.50	0.012907
353.75	0.020854
354.00	0.012955
354.25	0.012934
354.50	0.014140
354.75	0.017106
355.00	0.015894
355.25	0.013688
355.50	0.012489
355.75	0.017798
356.00	0.015181
356.25	0.014106
356.50	0.014770
356.75	0.015175
357.00	0.012585
357.25	0.016298
357.50	0.014729
357.75	0.012468
358.00	0.014818
358.25	0.015462
358.50	0.014099
358.75	0.014188
359.00	0.016319
359.25	0.013750
359.50	0.016147
359.75	0.014839
360.00	0.014578
360.25	0.016319
360.50	0.016456
360.75	0.014969
361.00	0.017175
361.25	0.015010
361.50	0.015250
361.75	0.014757
362.00	0.014791
362.25	0.015572
362.50	0.013126
362.75	0.013832
363.00	0.017257
363.25	0.018668
363.50	0.016291
363.75	0.016319
364.00	0.017161
364.25	0.015318
364.50	0.016168
364.75	0.016921
365.00	0.015407
365.25	0.015962
365.50	0.017326
365.75	0.017490
366.00	0.016606
366.25	0.015510
366.50	0.017134
366.75	0.014990
367.00	0.017908
367.25	0.016654
367.50	0.017086
367.75	0.014229
368.00	0.015168
368.25	0.015955
368.50	0.016572
368.75	0.012914
369.00	0.014311
369.25	0.016832
369.50	0.015572
369.75	0.014065
370.00	0.014544
370.25	0.014037
370.50	0.013660
370.75	0.016017
371.00	0.015264
371.25	0.014407
371.50	0.015825
371.75	0.014366
372.00	0.014126
372.25	0.017394
372.50	0.015572
372.75	0.016394
373.00	0.014818
373.25	0.015510
373.50	0.015175
373.75	0.017771
374.00	0.015805
374.25	0.016442
374.50	0.016586
374.75	0.016784
375.00	0.016784
375.25	0.018840
375.50	0.015250
375.75	0.015579
376.00	0.018449
376.25	0.017476
376.50	0.018819
376.75	0.016127
377.00	0.017586
377.25	0.018744
377.50	0.017860
377.75	0.016812
378.00	0.019025
378.25	0.016901
378.50	0.017654
378.75	0.016045
379.00	0.017613
379.25	0.019908
379.50	0.017120
379.75	0.019956
380.00	0.019669
380.25	0.019429
380.50	0.019004
380.75	0.021196
381.00	0.021388
381.25	0.017661
381.50	0.019299
381.75	0.018942
382.00	0.018223
382.25	0.019696
382.50	0.018141
382.75	0.020963
383.00	0.019504
383.25	0.018244
383.50	0.018408
383.75	0.019511
384.00	0.020134
384.25	0.020073
384.50	0.018244
384.75	0.019388
385.00	0.019758
385.25	0.019353
385.50	0.021162
385.75	0.018511
386.00	0.019210
386.25	0.019456
386.50	0.017428
386.75	0.018408
387.00	0.018737
387.25	0.018730
387.50	0.017744
387.75	0.018525
388.00	0.018100
388.25	0.018093
388.50	0.019121
388.75	0.019833
389.00	0.015743
389.25	0.018805
389.50	0.015723
389.75	0.016716
390.00	0.017983
390.25	0.016949
390.50	0.014743
390.75	0.017333
391.00	0.016873
391.25	0.015736
391.50	0.016188
391.75	0.015044
392.00	0.016216
392.25	0.015544
392.50	0.016545
392.75	0.013126
393.00	0.015476
393.25	0.016332
393.50	0.014551
393.75	0.015147
394.00	0.015250
394.25	0.015387
394.50	0.013914
394.75	0.013174
395.00	0.015312
395.25	0.014414
395.50	0.014113
395.75	0.013935
396.00	0.014304
396.25	0.015291
396.50	0.015003
396.75	0.012551
397.00	0.013318
397.25	0.013948
397.50	0.012756
397.75	0.012934
398.00	0.013277
398.25	0.016243
398.50	0.014167
398.75	0.013208
399.00	0.012907
399.25	0.013448
399.50	0.013654
399.75	0.012934
400.00	0.012023
400.25	0.013023
400.50	0.013619
400.75	0.013523
401.00	0.011852
401.25	0.013359
401.50	0.012879
401.75	0.014729
402.00	0.012886
402.25	0.012516
402.50	0.012660
402.75	0.013654
403.00	0.012386
403.25	0.011866
403.50	0.013414
403.75	0.014681
404.00	0.014715
404.25	0.015017
404.50	0.012263
404.75	0.013996
405.00	0.014846
405.25	0.013681
405.50	0.015065
405.75	0.013304
406.00	0.014928
406.25	0.012969
406.50	0.013154
406.75	0.012934
407.00	0.014400
407.25	0.011989
407.50	0.012784
407.75	0.013304
408.00	0.014154
408.25	0.015921
408.50	0.014647
408.75	0.011537
409.00	0.013736
409.25	0.013626
409.50	0.014092
409.75	0.014284
410.00	0.016360
410.25	0.015318
410.50	0.015044
410.75	0.013469
411.00	0.015003
411.25	0.016736
411.50	0.015784
411.75	0.017113
412.00	0.014668
412.25	0.014880
412.50	0.015771
412.75	0.014969
413.00	0.015401
413.25	0.014969
413.50	0.017278
413.75	0.015750
414.00	0.015455
414.25	0.016709
414.50	0.016093
414.75	0.015805
415.00	0.015805
415.25	0.014709
415.50	0.015675
415.75	0.015414
416.00	0.016490
416.25	0.015154
416.50	0.015620
416.75	0.014839
417.00	0.016620
417.25	0.015216
417.50	0.015880
417.75	0.018203
418.00	0.014668
418.25	0.016689
418.50	0.015120
418.75	0.015908
419.00	0.017497
419.25	0.016565
419.50	0.017106
419.75	0.017271
420.00	0.017141
420.25	0.017257
420.50	0.017031
420.75	0.017271
421.00	0.018155
421.25	0.017668
421.50	0.017942
421.75	0.018367
422.00	0.018956
422.25	0.018799
422.50	0.016990
422.75	0.017572
423.00	0.018730
423.25	0.016990
423.50	0.017524
423.75	0.018888
424.00	0.017846
424.25	0.017634
424.50	0.018066
424.75	0.018737
425.00	0.018107
425.25	0.018203
425.50	0.016791
425.75	0.015887
426.00	0.018600
426.25	0.019723
426.50	0.019155
426.75	0.018662
427.00	0.019031
427.25	0.018285
427.50	0.019134
427.75	0.018600
428.00	0.019169
428.25	0.020189
428.50	0.018799
428.75	0.020045
429.00	0.019449
429.25	0.020566
429.50	0.018066
429.75	0.020826
430.00	0.019484
430.25	0.021279
430.50	0.020689
430.75	0.020737
431.00	0.021046
431.25	0.020676
431.50	0.022162
431.75	0.019950
432.00	0.022614
432.25	0.020580
432.50	0.021292
432.75	0.020340
433.00	0.021142
433.25	0.021566
433.50	0.020861
433.75	0.020813
434.00	0.021607
434.25	0.020854
434.50	0.021244
434.75	0.022347
435.00	0.021875
435.25	0.021806
435.50	0.022217
435.75	0.021416
436.00	0.022162
436.25	0.022697
436.50	0.021916
436.75	0.022457
437.00	0.022080
437.25	0.021792
437.50	0.020854
437.75	0.021744
438.00	0.021806
438.25	0.021011
438.50	0.021368
438.75	0.022580
439.00	0.023080
439.25	0.021251
439.50	0.022498
439.75	0.021491
440.00	0.022539
440.25	0.023834
440.50	0.022649
440.75	0.021916
441.00	0.021553
441.25	0.022183
441.50	0.023019
441.75	0.020470
442.00	0.022827
442.25	0.021539
442.50	0.022347
442.75	0.023053
443.00	0.021107
443.25	0.021005
443.50	0.022183
443.75	0.021491
444.00	0.021546
444.25	0.022628
444.50	0.021080
444.75	0.022532
445.00	0.020162
445.25	0.020600
445.50	0.022512
445.75	0.020806
446.00	0.020374
446.25	0.023224
446.50	0.020744
446.75	0.019970
447.00	0.020463
447.25	0.020984
447.50	0.019381
447.75	0.020902
448.00	0.019086
448.25	0.021162
448.50	0.020182
448.75	0.019922
449.00	0.020607
449.25	0.020703
449.50	0.020778
449.75	0.019950
450.00	0.020415
450.25	0.020066
450.50	0.018251
450.75	0.020409
451.00	0.019285
451.25	0.020162
451.50	0.018894
451.75	0.019634
452.00	0.019107
452.25	0.019312
452.50	0.018874
452.75	0.016504
453.00	0.019292
453.25	0.019765
453.50	0.018751
453.75	0.017675
454.00	0.017415
454.25	0.017648
454.50	0.016764
454.75	0.018161
455.00	0.017860
455.25	0.016798
455.50	0.017209
455.75	0.018100
456.00	0.016654
456.25	0.017250
456.50	0.016963
456.75	0.015640
457.00	0.017812
457.25	0.016778
457.50	0.017593
457.75	0.016140
458.00	0.017017
458.25	0.016565
458.50	0.016195
458.75	0.016791
459.00	0.015318
459.25	0.015442
459.50	0.015168
459.75	0.017490
460.00	0.015270
460.25	0.014640
460.50	0.015106
460.75	0.014935
461.00	0.015236
461.25	0.015812
461.50	0.014469
461.75	0.015072
462.00	0.014585
462.25	0.015661
462.50	0.014058
462.75	0.016428
463.00	0.014750
463.25	0.014805
463.50	0.014551
463.75	0.015353
464.00	0.014339
464.25	0.013201
464.50	0.015551
464.75	0.014709
465.00	0.015435
465.25	0.014572
465.50	0.013722
465.75	0.013523
466.00	0.012859
466.25	0.013640
466.50	0.015010
466.75	0.014976
467.00	0.014599
467.25	0.013332
467.50	0.013558
467.75	0.014209
468.00	0.013811
468.25	0.014585
468.50	0.014757
468.75	0.014441
469.00	0.013201
469.25	0.014599
469.50	0.012051
469.75	0.013962
470.00	0.013489
470.25	0.013167
470.50	0.013003
470.75	0.012270
471.00	0.012338
471.25	0.012647
471.50	0.013969
471.75	0.012667
472.00	0.012736
472.25	0.013003
472.50	0.013414
472.75	0.013017
473.00	0.012756
473.25	0.012825
473.50	0.012797
473.75	0.012400
474.00	0.011091
474.25	0.011550
474.50	0.012092
474.75	0.011633
475.00	0.011955
475.25	0.011674
475.50	0.012126
475.75	0.012516
476.00	0.012784
476.25	0.012085
476.50	0.010030
476.75	0.013941
477.00	0.012160
477.25	0.012057
477.50	0.010598
477.75	0.012962
478.00	0.012256
478.25	0.010941
478.50	0.012647
478.75	0.011557
479.00	0.012140
479.25	0.012242
479.50	0.012701
479.75	0.011550
480.00	0.010564
480.25	0.013023
480.50	0.011249
480.75	0.012489
481.00	0.010173
481.25	0.012085
481.50	0.011598
481.75	0.010838
482.00	0.010961
482.25	0.0097624
482.50	0.012167
482.75	0.011352
483.00	0.011290
483.25	0.011400
483.50	0.011187
483.75	0.011208
484.00	0.012448
484.25	0.011400
484.50	0.010859
484.75	0.011407
485.00	0.011982
485.25	0.012057
485.50	0.012105
485.75	0.0098925
486.00	0.010447
486.25	0.010674
486.50	0.011365
486.75	0.012290
487.00	0.010167
487.25	0.012393
487.50	0.010187
487.75	0.011509
488.00	0.010728
488.25	0.011379
488.50	0.012318
488.75	0.011982
489.00	0.010927
489.25	0.011105
489.50	0.011324
489.75	0.011763
490.00	0.012701
490.25	0.012736
490.50	0.011112
490.75	0.011968
491.00	0.011208
491.25	0.011811
491.50	0.010742
491.75	0.011763
492.00	0.010749
492.25	0.011448
492.50	0.010427
492.75	0.011749
493.00	0.010715
493.25	0.012174
493.50	0.0095226
493.75	0.011283
494.00	0.010523
494.25	0.012969
494.50	0.010591
494.75	0.011386
495.00	0.010927
495.25	0.012640
495.50	0.010502
495.75	0.011146
496.00	0.012564
496.25	0.011160
496.50	0.012290
496.75	0.011879
497.00	0.012105
497.25	0.011448
497.50	0.010961
497.75	0.012140
498.00	0.012222
498.25	0.013832
498.50	0.011324
498.75	0.010434
499.00	0.013414
499.25	0.013702
499.50	0.011866
499.75	0.012921
500.00	0.012523
500.25	0.014421
500.50	0.013558
500.75	0.011434
501.00	0.012790
501.25	0.012921
501.50	0.011955
501.75	0.014092
502.00	0.012653
502.25	0.014277
502.50	0.013441
502.75	0.015517
503.00	0.012790
503.25	0.014558
503.50	0.014236
503.75	0.013393
504.00	0.015359
504.25	0.013106
504.50	0.014435
504.75	0.016003
505.00	0.015654
505.25	0.014291
505.50	0.014688
505.75	0.015538
506.00	0.016764
506.25	0.015476
506.50	0.015414
506.75	0.016606
507.00	0.016339
507.25	0.015969
507.50	0.017661
507.75	0.015777
508.00	0.017285
508.25	0.015127
508.50	0.016743
508.75	0.016908
509.00	0.018312
509.25	0.016997
509.50	0.017511
509.75	0.017387
510.00	0.018367
510.25	0.017682
510.50	0.018134
510.75	0.019093
511.00	0.020217
511.25	0.019415
511.50	0.020614
511.75	0.020751
512.00	0.018456
512.25	0.020025
512.50	0.019902
512.75	0.018285
513.00	0.019292
513.25	0.022005
513.50	0.020306
513.75	0.020011
514.00	0.020498
514.25	0.020874
514.50	0.022423
514.75	0.022162
515.00	0.022532
515.25	0.022608
515.50	0.022799
515.75	0.025108
516.00	0.020429
516.25	0.022991
516.50	0.023128
516.75	0.025430
517.00	0.023368
517.25	0.023868
517.50	0.024437
517.75	0.026191
518.00	0.026451
518.25	0.023868
518.50	0.027061
518.75	0.026739
519.00	0.027458
519.25	0.025663
519.50	0.027698
519.75	0.029506
520.00	0.028801
520.25	0.026519
520.50	0.027753
520.75	0.028239
521.00	0.030054
521.25	0.029541
521.50	0.029061
521.75	0.028931
522.00	0.031562
522.25	0.030082
522.50	0.031246
522.75	0.030924
523.00	0.031945
523.25	0.032233
523.50	0.031979
523.75	0.033487
524.00	0.032582
524.25	0.033048
524.50	0.033432
524.75	0.033966
525.00	0.032891
525.25	0.035227
525.50	0.036028
525.75	0.034775
526.00	0.035528
526.25	0.037255
526.50	0.035610
526.75	0.037789
527.00	0.036583
527.25	0.038515
527.50	0.038440
527.75	0.039419
528.00	0.038289
528.25	0.038488
528.50	0.039461
528.75	0.039899
529.00	0.042078
529.25	0.041488
529.50	0.043044
529.75	0.041351
530.00	0.042865
530.25	0.045434
530.50	0.042886
530.75	0.044366
531.00	0.043708
531.25	0.046517
531.50	0.046222
531.75	0.046051
532.00	0.046524
532.25	0.044208
532.50	0.048969
532.75	0.049120
533.00	0.048209
533.25	0.048798
533.50	0.051052
533.75	0.051847
534.00	0.051107
534.25	0.052367
534.50	0.051621
534.75	0.052833
535.00	0.051682
535.25	0.052957
535.50	0.055402
535.75	0.054368
536.00	0.055916
536.25	0.053786
536.50	0.057136
536.75	0.058033
537.00	0.058965
537.25	0.060362
537.50	0.059499
537.75	0.061609
538.00	0.060088
538.25	0.061253
538.50	0.061828
538.75	0.061657
539.00	0.063541
539.25	0.065199
539.50	0.063411
539.75	0.064822
540.00	0.067295
540.25	0.063541
540.50	0.067638
540.75	0.066603
541.00	0.069679
541.25	0.070001
541.50	0.072413
541.75	0.072762
542.00	0.071303
542.25	0.072639
542.50	0.073769
542.75	0.074989
543.00	0.074557
543.25	0.076051
543.50	0.077565
543.75	0.076832
544.00	0.079640
544.25	0.077928
544.50	0.079764
544.75	0.081600
545.00	0.081339
545.25	0.083278
545.50	0.081860
545.75	0.085676
546.00	0.083134
546.25	0.084470
546.50	0.085929
546.75	0.084991
547.00	0.088115
547.25	0.088409
547.50	0.090485
547.75	0.090992
548.00	0.092225
548.25	0.091198
548.50	0.093205
548.75	0.092972
549.00	0.095233
549.25	0.095603
549.50	0.095445
549.75	0.096322
550.00	0.095801
550.25	0.098761
550.50	0.10000
550.75	0.099213
551.00	0.099775
551.25	0.10137
551.50	0.10339
551.75	0.10345
552.00	0.10380
552.25	0.10469
552.50	0.10360
552.75	0.10721
553.00	0.10599
553.25	0.10703
553.50	0.10924
553.75	0.10904
554.00	0.11142
554.25	0.11139
554.50	0.11177
554.75	0.11144
555.00	0.11514
555.25	0.11387
555.50	0.11814
555.75	0.11777
556.00	0.11921
556.25	0.12283
556.50	0.11999
556.75	0.12215
557.00	0.12146
557.25	0.12552
557.50	0.12472
557.75	0.12539
558.00	0.12793
558.25	0.12793
558.50	0.12989
558.75	0.13034
559.00	0.13225
559.25	0.13364
559.50	0.13412
559.75	0.13488
560.00	0.13436
560.25	0.13958
560.50	0.13773
560.75	0.13950
561.00	0.14159
561.25	0.14146
561.50	0.14396
561.75	0.14552
562.00	0.14743
562.25	0.14839
562.50	0.14809
562.75	0.14985
563.00	0.15142
563.25	0.15446
563.50	0.15296
563.75	0.15834
564.00	0.15975
564.25	0.15925
564.50	0.16089
564.75	0.16048
565.00	0.16384
565.25	0.16576
565.50	0.16904
565.75	0.16567
566.00	0.17045
566.25	0.16998
566.50	0.17313
566.75	0.17337
567.00	0.17265
567.25	0.17691
567.50	0.17843
567.75	0.18062
568.00	0.18243
568.25	0.18379
568.50	0.18726
568.75	0.18690
569.00	0.18892
569.25	0.19187
569.50	0.19271
569.75	0.19574
570.00	0.19678
570.25	0.19895
570.50	0.20181
570.75	0.20224
571.00	0.20741
571.25	0.20868
571.50	0.20722
571.75	0.21127
572.00	0.21072
572.25	0.21559
572.50	0.21688
572.75	0.21788
573.00	0.22147
573.25	0.22164
573.50	0.22745
573.75	0.22545
574.00	0.22841
574.25	0.22963
574.50	0.23296
574.75	0.23384
575.00	0.23617
575.25	0.23973
575.50	0.24023
575.75	0.24326
576.00	0.24493
576.25	0.24844
576.50	0.24928
576.75	0.25535
577.00	0.25610
577.25	0.25801
577.50	0.26117
577.75	0.26254
578.00	0.26671
578.25	0.26660
578.50	0.27131
578.75	0.27293
579.00	0.27696
579.25	0.27953
579.50	0.28066
579.75	0.28586
580.00	0.28766
580.25	0.29009
580.50	0.29304
580.75	0.29478
581.00	0.29769
581.25	0.29987
581.50	0.30507
581.75	0.30532
582.00	0.30690
582.25	0.31064
582.50	0.31294
582.75	0.31659
583.00	0.31940
583.25	0.32137
583.50	0.32436
583.75	0.32668
584.00	0.32986
584.25	0.33117
584.50	0.33459
584.75	0.33526
585.00	0.33944
585.25	0.34075
585.50	0.34341
585.75	0.34564
586.00	0.34740
586.25	0.35097
586.50	0.35045
586.75	0.35383
587.00	0.35634
587.25	0.35949
587.50	0.35941
587.75	0.35883
588.00	0.36424
588.25	0.36635
588.50	0.36730
588.75	0.36709
589.00	0.37172
589.25	0.37312
589.50	0.37365
589.75	0.37496
590.00	0.37551
590.25	0.37780
590.50	0.37897
590.75	0.38058
591.00	0.38263
591.25	0.38377
591.50	0.38627
591.75	0.38576
592.00	0.38605
592.25	0.38747
592.50	0.38993
592.75	0.39051
593.00	0.39058
593.25	0.39041
593.50	0.39251
593.75	0.39595
594.00	0.39507
594.25	0.39546
594.50	0.39650
594.75	0.39671
595.00	0.39885
595.25	0.40041
595.50	0.40008
595.75	0.39957
596.00	0.40094
596.25	0.40150
596.50	0.40190
596.75	0.40456
597.00	0.40220
597.25	0.40465
597.50	0.40538
597.75	0.40461
598.00	0.40559
598.25	0.40804
598.50	0.40560
598.75	0.40604
599.00	0.40777
599.25	0.40822
599.50	0.40857
599.75	0.40968
600.00	0.40744
600.25	0.40885
600.50	0.40762
600.75	0.40865
601.00	0.40889
601.25	0.41096
601.50	0.40918
601.75	0.41292
602.00	0.41030
602.25	0.41222
602.50	0.41271
602.75	0.41314
603.00	0.41551
603.25	0.41427
603.50	0.41754
603.75	0.41647
604.00	0.41571
604.25	0.41636
604.50	0.41823
604.75	0.41999
605.00	0.41817
605.25	0.42159
605.50	0.42284
605.75	0.42199
606.00	0.42524
606.25	0.42402
606.50	0.42565
606.75	0.42604
607.00	0.42930
607.25	0.42899
607.50	0.43172
607.75	0.43333
608.00	0.43274
608.25	0.43578
608.50	0.43570
608.75	0.43898
609.00	0.44029
609.25	0.44388
609.50	0.44464
609.75	0.44492
610.00	0.45012
610.25	0.44908
610.50	0.45265
610.75	0.45416
611.00	0.45644
611.25	0.46095
611.50	0.46163
611.75	0.46551
612.00	0.46882
612.25	0.47026
612.50	0.47307
612.75	0.47401
613.00	0.47895
613.25	0.48124
613.50	0.48499
613.75	0.48573
614.00	0.48793
614.25	0.49203
614.50	0.49259
614.75	0.49445
615.00	0.49944
615.25	0.50372
615.50	0.50784
615.75	0.51152
616.00	0.51263
616.25	0.51732
616.50	0.52252
616.75	0.52289
617.00	0.52790
617.25	0.53110
617.50	0.53738
617.75	0.53870
618.00	0.54331
618.25	0.54752
618.50	0.54947
618.75	0.55596
619.00	0.55813
619.25	0.56228
619.50	0.56514
619.75	0.57049
620.00	0.57066
620.25	0.57659
620.50	0.58144
620.75	0.58306
621.00	0.58966
621.25	0.59035
621.50	0.59491
621.75	0.60094
622.00	0.60253
622.25	0.60793
622.50	0.61039
622.75	0.61506
623.00	0.61874
623.25	0.62327
623.50	0.62567
623.75	0.63022
624.00	0.63384
624.25	0.63586
624.50	0.64228
624.75	0.64616
625.00	0.64740
625.25	0.65259
625.50	0.65781
625.75	0.66306
626.00	0.66536
626.25	0.67046
626.50	0.67386
626.75	0.67770
627.00	0.68219
627.25	0.68578
627.50	0.69112
627.75	0.69546
628.00	0.70314
628.25	0.70480
628.50	0.71093
628.75	0.71435
629.00	0.71857
629.25	0.72368
629.50	0.73064
629.75	0.73652
630.00	0.74206
630.25	0.74672
630.50	0.75026
630.75	0.75403
631.00	0.76373
631.25	0.76715
631.50	0.77680
631.75	0.78379
632.00	0.78664
632.25	0.79209
632.50	0.80132
632.75	0.80360
633.00	0.80972
633.25	0.81627
633.50	0.82288
633.75	0.82938
634.00	0.83639
634.25	0.84315
634.50	0.84935
634.75	0.85848
635.00	0.86669
635.25	0.87246
635.50	0.88216
635.75	0.89151
636.00	0.89545
636.25	0.90015
636.50	0.90746
636.75	0.91396
637.00	0.91940
637.25	0.92534
637.50	0.92822
637.75	0.93561
638.00	0.94319
638.25	0.94630
638.50	0.95243
638.75	0.95271
639.00	0.96080
639.25	0.96491
639.50	0.96729
639.75	0.97139
640.00	0.97823
640.25	0.97833
640.50	0.98235
640.75	0.98416
641.00	0.99020
641.25	0.99151
641.50	0.99451
641.75	0.99643
642.00	0.99270
642.25	0.99610
642.50	1.0000
642.75	0.99964
643.00	0.99981
643.25	0.99835
643.50	0.99957
643.75	0.99824
644.00	0.99744
644.25	0.99595
644.50	0.99327
644.75	0.99273
645.00	0.98832
645.25	0.98583
645.50	0.98480
645.75	0.97914
646.00	0.97644
646.25	0.97296
646.50	0.97000
646.75	0.95980
647.00	0.95590
647.25	0.94887
647.50	0.94356
647.75	0.93841
648.00	0.92798
648.25	0.92292
648.50	0.91301
648.75	0.90445
649.00	0.89829
649.25	0.88814
649.50	0.88121
649.75	0.86862
650.00	0.86064
650.25	0.85072
650.50	0.84101
650.75	0.83129
651.00	0.81929
651.25	0.80747
651.50	0.79553
651.75	0.78633
652.00	0.77370
652.25	0.76192
652.50	0.75133
652.75	0.73877
653.00	0.72746
653.25	0.71509
653.50	0.70562
653.75	0.69764
654.00	0.68700
654.25	0.67854
654.50	0.66624
654.75	0.65622
655.00	0.64502
655.25	0.63012
655.50	0.61754
655.75	0.60444
656.00	0.59648
656.25	0.58299
656.50	0.57219
656.75	0.55846
657.00	0.54678
657.25	0.53266
657.50	0.52233
657.75	0.51270
658.00	0.49990
658.25	0.48786
658.50	0.47805
658.75	0.46724
659.00	0.45576
659.25	0.44434
659.50	0.43331
659.75	0.42440
660.00	0.41447
660.25	0.40408
660.50	0.39588
660.75	0.38364
661.00	0.37745
661.25	0.36580
661.50	0.35823
661.75	0.34775
662.00	0.33972
662.25	0.33209
662.50	0.32354
662.75	0.31733
663.00	0.30769
663.25	0.30225
663.50	0.29356
663.75	0.28574
664.00	0.27899
664.25	0.27348
664.50	0.26667
664.75	0.25856
665.00	0.25122
665.25	0.24674
665.50	0.23841
665.75	0.23430
666.00	0.22785
666.25	0.22337
666.50	0.21681
666.75	0.21174
667.00	0.20587
667.25	0.19947
667.50	0.19680
667.75	0.19088
668.00	0.18614
668.25	0.18166
668.50	0.17715
668.75	0.17271
669.00	0.16636
669.25	0.16281
669.50	0.15678
669.75	0.15483
670.00	0.14996
670.25	0.14526
670.50	0.14152
670.75	0.13689
671.00	0.13498
671.25	0.13001
671.50	0.12572
671.75	0.12256
672.00	0.11863
672.25	0.11755
672.50	0.11150
672.75	0.10945
673.00	0.10512
673.25	0.10393
673.50	0.099439
673.75	0.098199
674.00	0.093767
674.25	0.091424
674.50	0.087560
674.75	0.084689
675.00	0.082120
675.25	0.078990
675.50	0.076832
675.75	0.073290
676.00	0.070419
676.25	0.067494
676.50	0.067254
676.75	0.065151
677.00	0.061979
677.25	0.060013
677.50	0.059232
677.75	0.057348
678.00	0.055567
678.25	0.053909
678.50	0.051586
678.75	0.050209
679.00	0.048853
679.25	0.046558
679.50	0.044599
679.75	0.043413
680.00	0.042523
680.25	0.042975
680.50	0.040146
680.75	0.040783
681.00	0.037755
681.25	0.036837
681.50	0.035658
681.75	0.033665
682.00	0.033603
682.25	0.033021
682.50	0.031822
682.75	0.030424
683.00	0.031014
683.25	0.028698
683.50	0.027938
683.75	0.027828
684.00	0.027300
684.25	0.027013
684.50	0.025170
684.75	0.026369
685.00	0.023265
685.25	0.022539
685.50	0.021744
685.75	0.021566
686.00	0.021594
686.25	0.019278
686.50	0.020895
686.75	0.021354
687.00	0.021162
687.25	0.018949
687.50	0.017641
687.75	0.017517
688.00	0.017264
688.25	0.017182
688.50	0.014674
688.75	0.015538
689.00	0.016606
689.25	0.013866
689.50	0.013106
689.75	0.012612
690.00	0.012886
690.25	0.012790
690.50	0.013078
690.75	0.010194
691.00	0.010680
691.25	0.012558
691.50	0.011228
691.75	0.0090842
692.00	0.010879
692.25	0.010968
692.50	0.010763
692.75	0.010989
693.00	0.0093787
693.25	0.0088170
693.50	0.010105
693.75	0.0085909
694.00	0.0079401
694.25	0.0076455
694.50	0.0081113
694.75	0.0098925
695.00	0.0068028
695.25	0.0072755
695.50	0.0077208
695.75	0.0064740
696.00	0.0079949
696.25	0.0079127
696.50	0.0071796
696.75	0.0074400
697.00	0.0067549
697.25	0.0051038
697.50	0.0071248
697.75	0.0064397
698.00	0.0068919
698.25	0.0065425
698.50	0.0069124
698.75	0.0060630
699.00	0.0056039
699.25	0.0044393
699.50	0.0059602
699.75	0.0038090
700.00	0.0055217
