Wavelength (nm)	J05 abs N
280.00	0.28568
281.00	0.27841
282.00	0.27339
283.00	0.27097
284.00	0.27089
285.00	0.27302
286.00	0.27734
287.00	0.28291
288.00	0.28953
289.00	0.29673
290.00	0.30529
291.00	0.31359
292.00	0.32231
293.00	0.33161
294.00	0.34174
295.00	0.35168
296.00	0.36187
297.00	0.37232
298.00	0.38252
299.00	0.39169
300.00	0.40007
301.00	0.40679
302.00	0.41239
303.00	0.41687
304.00	0.42062
305.00	0.42287
306.00	0.42486
307.00	0.42636
308.00	0.42758
309.00	0.42906
310.00	0.42972
311.00	0.42950
312.00	0.42793
313.00	0.42454
314.00	0.41881
315.00	0.41092
316.00	0.40002
317.00	0.38697
318.00	0.37081
319.00	0.35281
320.00	0.33358
321.00	0.31337
322.00	0.29475
323.00	0.27602
324.00	0.25910
325.00	0.24366
326.00	0.22981
327.00	0.21741
328.00	0.20642
329.00	0.19728
330.00	0.18848
331.00	0.18097
332.00	0.17395
333.00	0.16794
334.00	0.16263
335.00	0.15763
336.00	0.15321
337.00	0.14928
338.00	0.14559
339.00	0.14206
340.00	0.13910
341.00	0.13630
342.00	0.13380
343.00	0.13192
344.00	0.12982
345.00	0.12850
346.00	0.12715
347.00	0.12623
348.00	0.12560
349.00	0.12542
350.00	0.12566
351.00	0.12616
352.00	0.12708
353.00	0.12869
354.00	0.13008
355.00	0.13219
356.00	0.13468
357.00	0.13721
358.00	0.14031
359.00	0.14405
360.00	0.14793
361.00	0.15227
362.00	0.15625
363.00	0.16133
364.00	0.16610
365.00	0.17191
366.00	0.17755
367.00	0.18301
368.00	0.18924
369.00	0.19514
370.00	0.20150
371.00	0.20772
372.00	0.21401
373.00	0.22032
374.00	0.22719
375.00	0.23372
376.00	0.24055
377.00	0.24790
378.00	0.25460
379.00	0.26073
380.00	0.26701
381.00	0.27443
382.00	0.28195
383.00	0.28885
384.00	0.29555
385.00	0.30303
386.00	0.31004
387.00	0.31691
388.00	0.32411
389.00	0.33027
390.00	0.33663
391.00	0.34383
392.00	0.34993
393.00	0.35547
394.00	0.36117
395.00	0.36724
396.00	0.37270
397.00	0.37788
398.00	0.38260
399.00	0.38708
400.00	0.39156
401.00	0.39577
402.00	0.39994
403.00	0.40435
404.00	0.40765
405.00	0.41056
406.00	0.41431
407.00	0.41812
408.00	0.42065
409.00	0.42313
410.00	0.42706
411.00	0.42945
412.00	0.43236
413.00	0.43473
414.00	0.43780
415.00	0.43990
416.00	0.44234
417.00	0.44467
418.00	0.44687
419.00	0.45006
420.00	0.45213
421.00	0.45452
422.00	0.45692
423.00	0.45911
424.00	0.46222
425.00	0.46421
426.00	0.46735
427.00	0.47052
428.00	0.47338
429.00	0.47580
430.00	0.47985
431.00	0.48397
432.00	0.48725
433.00	0.49229
434.00	0.49779
435.00	0.50287
436.00	0.50892
437.00	0.51543
438.00	0.52264
439.00	0.52933
440.00	0.53736
441.00	0.54609
442.00	0.55499
443.00	0.56373
444.00	0.57444
445.00	0.58432
446.00	0.59433
447.00	0.60602
448.00	0.61627
449.00	0.62848
450.00	0.64077
451.00	0.65189
452.00	0.66392
453.00	0.67700
454.00	0.68881
455.00	0.70061
456.00	0.71397
457.00	0.72766
458.00	0.74195
459.00	0.75237
460.00	0.76595
461.00	0.77962
462.00	0.79380
463.00	0.80759
464.00	0.81977
465.00	0.83408
466.00	0.84662
467.00	0.85880
468.00	0.87372
469.00	0.88723
470.00	0.89838
471.00	0.91020
472.00	0.92324
473.00	0.93417
474.00	0.94397
475.00	0.94928
476.00	0.96251
477.00	0.97142
478.00	0.97747
479.00	0.98249
480.00	0.99029
481.00	0.99467
482.00	0.99517
483.00	0.99860
484.00	0.99597
485.00	0.99685
486.00	1.00000
487.00	0.99966
488.00	0.99448
489.00	0.98955
490.00	0.98513
491.00	0.98069
492.00	0.97762
493.00	0.97361
494.00	0.96776
495.00	0.95999
496.00	0.95438
497.00	0.95075
498.00	0.94073
499.00	0.93469
500.00	0.93267
501.00	0.92480
502.00	0.91881
503.00	0.91172
504.00	0.90282
505.00	0.89497
506.00	0.88481
507.00	0.87653
508.00	0.86600
509.00	0.85531
510.00	0.84046
511.00	0.82469
512.00	0.80996
513.00	0.79186
514.00	0.77690
515.00	0.75363
516.00	0.73460
517.00	0.71015
518.00	0.68916
519.00	0.66033
520.00	0.63670
521.00	0.60970
522.00	0.58341
523.00	0.55645
524.00	0.52644
525.00	0.49701
526.00	0.46862
527.00	0.44013
528.00	0.41258
529.00	0.38466
530.00	0.35976
531.00	0.33393
532.00	0.30766
533.00	0.28396
534.00	0.26096
535.00	0.24011
536.00	0.22035
537.00	0.20056
538.00	0.18318
539.00	0.16700
540.00	0.15141
541.00	0.13736
542.00	0.12418
543.00	0.11269
544.00	0.10148
545.00	0.092214
546.00	0.082777
547.00	0.074914
548.00	0.067399
549.00	0.060846
550.00	0.054915
551.00	0.049193
552.00	0.044014
553.00	0.039530
554.00	0.035095
555.00	0.031862
556.00	0.029127
557.00	0.026058
558.00	0.023826
559.00	0.021098
560.00	0.018597
561.00	0.016926
562.00	0.015178
563.00	0.013887
564.00	0.012116
565.00	0.011317
566.00	0.0098632
567.00	0.0087548
568.00	0.0076793
569.00	0.0065225
570.00	0.0060399
571.00	0.0054135
572.00	0.0047051
573.00	0.0043809
574.00	0.0037261
575.00	0.0032341
576.00	0.0029439
577.00	0.0025264
578.00	0.0022646
579.00	0.0017782
580.00	0.0016596
581.00	0.0015247
582.00	0.0012471
583.00	0.0013373
584.00	0.00097523
585.00	0.00067560
586.00	0.00070525
587.00	0.00066173
588.00	0.00078725
589.00	0.00062892
590.00	0.00059045
591.00	0.00067813
592.00	0.00074688
593.00	0.00050024
594.00	0.00063902
595.00	0.00073490
596.00	0.00069642
597.00	0.00075193
598.00	0.00041887
599.00	0.00081816
600.00	0.0010629
601.00	0.0010687
602.00	0.00095274
603.00	0.00087148
604.00	0.00092332
605.00	0.00084774
606.00	0.0011519
607.00	0.0010650
608.00	0.00090106
609.00	0.0012084
610.00	0.00084072
611.00	0.0011398
612.00	0.0012510
613.00	0.0013999
614.00	0.0011168
615.00	0.00099141
616.00	0.0013284
617.00	0.0013953
618.00	0.0011867
619.00	0.0016277
620.00	0.0015067
621.00	0.0017509
622.00	0.0016293
623.00	0.0015613
624.00	0.0017412
625.00	0.0017312
626.00	0.0018701
627.00	0.0021654
628.00	0.0021428
629.00	0.0023631
630.00	0.0020818
631.00	0.0020636
632.00	0.0024530
633.00	0.0016205
634.00	0.0016355
635.00	0.0016722
636.00	0.0018716
637.00	0.0016250
638.00	0.0015492
639.00	0.0015411
640.00	0.0020678
641.00	0.0019197
642.00	0.0020491
643.00	0.0024870
644.00	0.0019017
645.00	0.0018987
646.00	0.0011866
647.00	0.0022086
648.00	0.0018788
649.00	0.0012298
650.00	0.0018481
