Wavelength (nm)	K02 abs N
220.00	0.22532
220.25	0.22380
220.50	0.22228
220.75	0.22086
221.00	0.21830
221.25	0.21495
221.50	0.21426
221.75	0.21438
222.00	0.21201
222.25	0.21466
222.50	0.20993
222.75	0.20939
223.00	0.20762
223.25	0.20807
223.50	0.20645
223.75	0.20507
224.00	0.20535
224.25	0.20485
224.50	0.20436
224.75	0.20080
225.00	0.20242
225.25	0.20242
225.50	0.19966
225.75	0.19794
226.00	0.19828
226.25	0.19919
226.50	0.19768
226.75	0.19869
227.00	0.19697
227.25	0.19649
227.50	0.19676
227.75	0.19405
228.00	0.19375
228.25	0.19491
228.50	0.19172
228.75	0.19259
229.00	0.19298
229.25	0.19196
229.50	0.19168
229.75	0.19102
230.00	0.19180
230.25	0.19168
230.50	0.19165
230.75	0.18939
231.00	0.18960
231.25	0.18826
231.50	0.18853
231.75	0.18854
232.00	0.18849
232.25	0.18948
232.50	0.18976
232.75	0.18880
233.00	0.18873
233.25	0.18710
233.50	0.18608
233.75	0.18599
234.00	0.18602
234.25	0.18574
234.50	0.18609
234.75	0.18460
235.00	0.18228
235.25	0.18220
235.50	0.18229
235.75	0.18106
236.00	0.18164
236.25	0.18320
236.50	0.18256
236.75	0.18248
237.00	0.18078
237.25	0.18101
237.50	0.17948
237.75	0.18008
238.00	0.17849
238.25	0.17786
238.50	0.17689
238.75	0.17645
239.00	0.17544
239.25	0.17388
239.50	0.17273
239.75	0.16974
240.00	0.16724
240.25	0.16727
240.50	0.16559
240.75	0.16466
241.00	0.16304
241.25	0.16162
241.50	0.16064
241.75	0.16028
242.00	0.16018
242.25	0.15888
242.50	0.15709
242.75	0.15545
243.00	0.15424
243.25	0.15193
243.50	0.14847
243.75	0.14764
244.00	0.14332
244.25	0.14145
244.50	0.13894
244.75	0.13711
245.00	0.13590
245.25	0.13232
245.50	0.13050
245.75	0.12788
246.00	0.12707
246.25	0.12534
246.50	0.12405
246.75	0.12227
247.00	0.12344
247.25	0.12232
247.50	0.12265
247.75	0.12357
248.00	0.12419
248.25	0.12504
248.50	0.12517
248.75	0.12380
249.00	0.12097
249.25	0.11705
249.50	0.11449
249.75	0.11404
250.00	0.11206
250.25	0.11044
250.50	0.10938
250.75	0.10824
251.00	0.10707
251.25	0.10461
251.50	0.10190
251.75	0.10174
252.00	0.10166
252.25	0.10127
252.50	0.10077
252.75	0.10195
253.00	0.10237
253.25	0.10490
253.50	0.10587
253.75	0.10816
254.00	0.11096
254.25	0.11131
254.50	0.10949
254.75	0.10814
255.00	0.10624
255.25	0.10310
255.50	0.10035
255.75	0.097319
256.00	0.093169
256.25	0.089076
256.50	0.086343
256.75	0.085432
257.00	0.082590
257.25	0.079358
257.50	0.077102
257.75	0.077001
258.00	0.073291
258.25	0.072843
258.50	0.070710
258.75	0.068967
259.00	0.067398
259.25	0.068447
259.50	0.068787
259.75	0.070197
260.00	0.071578
260.25	0.070544
260.50	0.069271
260.75	0.066748
261.00	0.065027
261.25	0.063819
261.50	0.059813
261.75	0.056400
262.00	0.054195
262.25	0.052582
262.50	0.049495
262.75	0.047326
263.00	0.046834
263.25	0.044867
263.50	0.043023
263.75	0.043110
264.00	0.041570
264.25	0.040435
264.50	0.038981
264.75	0.036848
265.00	0.036870
265.25	0.036552
265.50	0.035055
265.75	0.034462
266.00	0.034021
266.25	0.031830
266.50	0.030861
266.75	0.030810
267.00	0.030962
267.25	0.030398
267.50	0.030608
267.75	0.029791
268.00	0.030724
268.25	0.028829
268.50	0.029017
268.75	0.028374
269.00	0.027340
269.25	0.025995
269.50	0.026913
269.75	0.026501
270.00	0.025749
270.25	0.025742
270.50	0.023869
270.75	0.023565
271.00	0.024151
271.25	0.022972
271.50	0.026002
271.75	0.024021
272.00	0.022611
272.25	0.023269
272.50	0.023724
272.75	0.023052
273.00	0.021049
273.25	0.021403
273.50	0.021396
273.75	0.020239
274.00	0.019943
274.25	0.021136
274.50	0.021425
274.75	0.021324
275.00	0.020492
275.25	0.021251
275.50	0.019509
275.75	0.019603
276.00	0.019357
276.25	0.020239
276.50	0.021165
276.75	0.021591
277.00	0.020861
277.25	0.020911
277.50	0.019125
277.75	0.020037
278.00	0.019783
278.25	0.020767
278.50	0.021577
278.75	0.021851
279.00	0.020564
279.25	0.022799
279.50	0.021208
279.75	0.019892
280.00	0.021794
280.25	0.021324
280.50	0.022452
280.75	0.022437
281.00	0.021266
281.25	0.021902
281.50	0.021794
281.75	0.021215
282.00	0.021721
282.25	0.020817
282.50	0.022748
282.75	0.021635
283.00	0.021938
283.25	0.022495
283.50	0.021917
283.75	0.020919
284.00	0.021591
284.25	0.022025
284.50	0.021750
284.75	0.020319
285.00	0.020883
285.25	0.021316
285.50	0.020369
285.75	0.020094
286.00	0.020405
286.25	0.020962
286.50	0.019986
286.75	0.020441
287.00	0.019292
287.25	0.019451
287.50	0.018880
287.75	0.019964
288.00	0.020883
288.25	0.019849
288.50	0.018974
288.75	0.018395
289.00	0.020037
289.25	0.018800
289.50	0.019234
289.75	0.020651
290.00	0.020210
290.25	0.019234
290.50	0.021143
290.75	0.018655
291.00	0.019241
291.25	0.018569
291.50	0.018634
291.75	0.019321
292.00	0.019552
292.25	0.018836
292.50	0.019567
292.75	0.019733
293.00	0.020253
293.25	0.019263
293.50	0.019545
293.75	0.019899
294.00	0.020817
294.25	0.020911
294.50	0.019950
294.75	0.019473
295.00	0.020275
295.25	0.021302
295.50	0.019971
295.75	0.020478
296.00	0.019726
296.25	0.020998
296.50	0.020304
296.75	0.020326
297.00	0.020268
297.25	0.022162
297.50	0.021230
297.75	0.020955
298.00	0.019422
298.25	0.020752
298.50	0.019436
298.75	0.021107
299.00	0.020658
299.25	0.020723
299.50	0.020181
299.75	0.020333
300.00	0.020304
300.25	0.020629
300.50	0.019241
300.75	0.020167
301.00	0.019921
301.25	0.020073
301.50	0.020615
301.75	0.020962
302.00	0.019039
302.25	0.019422
302.50	0.020029
302.75	0.019697
303.00	0.019914
303.25	0.019733
303.50	0.019328
303.75	0.019733
304.00	0.019227
304.25	0.019964
304.50	0.018627
304.75	0.020029
305.00	0.020680
305.25	0.018561
305.50	0.019169
305.75	0.020311
306.00	0.019060
306.25	0.019704
306.50	0.020116
306.75	0.018598
307.00	0.018012
307.25	0.017484
307.50	0.019024
307.75	0.020449
308.00	0.019733
308.25	0.018287
308.50	0.020463
308.75	0.017896
309.00	0.018909
309.25	0.018337
309.50	0.018243
309.75	0.018598
310.00	0.020029
310.25	0.022408
310.50	0.015532
310.75	0.017361
311.00	0.015713
311.25	0.017137
311.50	0.017144
311.75	0.019733
312.00	0.014686
312.25	0.018981
312.50	0.023891
312.75	0.020333
313.00	0.022842
313.25	0.018583
313.50	0.020485
313.75	0.016240
314.00	0.017166
314.25	0.019740
314.50	0.022567
314.75	0.017130
315.00	0.017549
315.25	0.020478
315.50	0.019053
315.75	0.016877
316.00	0.022126
316.25	0.021859
316.50	0.018764
316.75	0.017795
317.00	0.021468
317.25	0.019407
317.50	0.018446
317.75	0.021786
318.00	0.017918
318.25	0.018757
318.50	0.018612
318.75	0.019899
319.00	0.017672
319.25	0.022423
319.50	0.020413
319.75	0.020637
320.00	0.023515
320.25	0.020008
320.50	0.017007
320.75	0.020355
321.00	0.022979
321.25	0.021613
321.50	0.019313
321.75	0.016522
322.00	0.019299
322.25	0.020174
322.50	0.016913
322.75	0.022987
323.00	0.017361
323.25	0.019632
323.50	0.017954
323.75	0.020362
324.00	0.016016
324.25	0.019617
324.50	0.018395
324.75	0.016956
325.00	0.016739
325.25	0.016479
325.50	0.020196
325.75	0.015713
326.00	0.018634
326.25	0.018663
326.50	0.017036
326.75	0.021208
327.00	0.015807
327.25	0.021179
327.50	0.016067
327.75	0.016277
328.00	0.016732
328.25	0.018648
328.50	0.022531
328.75	0.020239
329.00	0.022567
329.25	0.020651
329.50	0.019935
329.75	0.020911
330.00	0.020261
330.25	0.015271
330.50	0.018106
330.75	0.019313
331.00	0.022133
331.25	0.016906
331.50	0.018634
331.75	0.014288
332.00	0.019791
332.25	0.017311
332.50	0.017354
332.75	0.015655
333.00	0.018308
333.25	0.018554
333.50	0.022003
333.75	0.015908
334.00	0.017658
334.25	0.017672
334.50	0.015604
334.75	0.018959
335.00	0.017368
335.25	0.015394
335.50	0.015828
335.75	0.016913
336.00	0.018279
336.25	0.019877
336.50	0.019451
336.75	0.015322
337.00	0.019335
337.25	0.023833
337.50	0.013384
337.75	0.019762
338.00	0.018120
338.25	0.015843
338.50	0.013811
338.75	0.018605
339.00	0.017940
339.25	0.016016
339.50	0.015929
339.75	0.017969
340.00	0.016631
340.25	0.019574
340.50	0.017433
340.75	0.014924
341.00	0.016327
341.25	0.015814
341.50	0.019342
341.75	0.018417
342.00	0.016689
342.25	0.020883
342.50	0.014556
342.75	0.021974
343.00	0.020159
343.25	0.018099
343.50	0.016074
343.75	0.016862
344.00	0.019704
344.25	0.016718
344.50	0.016226
344.75	0.018410
345.00	0.016168
345.25	0.021157
345.50	0.023269
345.75	0.018872
346.00	0.020810
346.25	0.015293
346.50	0.020557
346.75	0.014519
347.00	0.019429
347.25	0.019487
347.50	0.019386
347.75	0.015705
348.00	0.020297
348.25	0.017260
348.50	0.015481
348.75	0.018120
349.00	0.015857
349.25	0.017932
349.50	0.016906
349.75	0.013240
350.00	0.019704
350.25	0.015908
350.50	0.018742
350.75	0.016819
351.00	0.018366
351.25	0.019451
351.50	0.018236
351.75	0.016110
352.00	0.016985
352.25	0.016117
352.50	0.014751
352.75	0.014809
353.00	0.014968
353.25	0.017527
353.50	0.016436
353.75	0.020376
354.00	0.018099
354.25	0.016833
354.50	0.015214
354.75	0.019870
355.00	0.018641
355.25	0.019451
355.50	0.015553
355.75	0.020087
356.00	0.019718
356.25	0.018149
356.50	0.018677
356.75	0.016226
357.00	0.015141
357.25	0.018836
357.50	0.018655
357.75	0.019429
358.00	0.016436
358.25	0.020767
358.50	0.019646
358.75	0.018229
359.00	0.019068
359.25	0.019661
359.50	0.017961
359.75	0.020261
360.00	0.020311
360.25	0.021974
360.50	0.021432
360.75	0.021700
361.00	0.023225
361.25	0.020528
361.50	0.020789
361.75	0.022032
362.00	0.019111
362.25	0.020832
362.50	0.019950
362.75	0.019003
363.00	0.023392
363.25	0.023515
363.50	0.021851
363.75	0.021541
364.00	0.023052
364.25	0.024209
364.50	0.021743
364.75	0.021432
365.00	0.020456
365.25	0.024491
365.50	0.024802
365.75	0.026696
366.00	0.026544
366.25	0.022929
366.50	0.024932
366.75	0.022314
367.00	0.024549
367.25	0.021873
367.50	0.024708
367.75	0.022640
368.00	0.022596
368.25	0.023110
368.50	0.023167
368.75	0.021483
369.00	0.023825
369.25	0.026797
369.50	0.024693
369.75	0.025069
370.00	0.023782
370.25	0.025163
370.50	0.020911
370.75	0.025199
371.00	0.025062
371.25	0.024867
371.50	0.025828
371.75	0.024382
372.00	0.025084
372.25	0.025720
372.50	0.028193
372.75	0.025554
373.00	0.026277
373.25	0.026805
373.50	0.027087
373.75	0.029053
374.00	0.027680
374.25	0.027600
374.50	0.029321
374.75	0.026147
375.00	0.027448
375.25	0.028974
375.50	0.028923
375.75	0.027557
376.00	0.028063
376.25	0.031085
376.50	0.029321
376.75	0.028916
377.00	0.029560
377.25	0.028497
377.50	0.031722
377.75	0.028027
378.00	0.031309
378.25	0.030507
378.50	0.030745
378.75	0.027925
379.00	0.031158
379.25	0.030709
379.50	0.029111
379.75	0.030478
380.00	0.031418
380.25	0.032040
380.50	0.031758
380.75	0.031982
381.00	0.030919
381.25	0.029675
381.50	0.032929
381.75	0.031714
382.00	0.028865
382.25	0.029798
382.50	0.032220
382.75	0.032011
383.00	0.028482
383.25	0.028576
383.50	0.029068
383.75	0.029560
384.00	0.029762
384.25	0.028583
384.50	0.030275
384.75	0.029769
385.00	0.029227
385.25	0.029603
385.50	0.027962
385.75	0.027600
386.00	0.030377
386.25	0.030145
386.50	0.029885
386.75	0.027217
387.00	0.028844
387.25	0.029784
387.50	0.026993
387.75	0.028099
388.00	0.026197
388.25	0.027224
388.50	0.027506
388.75	0.026740
389.00	0.026226
389.25	0.026277
389.50	0.024187
389.75	0.024758
390.00	0.023977
390.25	0.024079
390.50	0.021504
390.75	0.024859
391.00	0.023782
391.25	0.020239
391.50	0.022068
391.75	0.024180
392.00	0.024925
392.25	0.024946
392.50	0.023927
392.75	0.022271
393.00	0.022321
393.25	0.020969
393.50	0.021613
393.75	0.021056
394.00	0.022119
394.25	0.022683
394.50	0.022842
394.75	0.021873
395.00	0.020347
395.25	0.020702
395.50	0.023088
395.75	0.020535
396.00	0.021591
396.25	0.021663
396.50	0.021447
396.75	0.021316
397.00	0.020977
397.25	0.021700
397.50	0.020861
397.75	0.019899
398.00	0.020644
398.25	0.022813
398.50	0.021844
398.75	0.022199
399.00	0.020586
399.25	0.022842
399.50	0.021244
399.75	0.021663
400.00	0.020644
400.25	0.020044
400.50	0.020767
400.75	0.022199
401.00	0.021403
401.25	0.022719
401.50	0.021114
401.75	0.023500
402.00	0.020622
402.25	0.021353
402.50	0.019624
402.75	0.021606
403.00	0.023247
403.25	0.021512
403.50	0.022343
403.75	0.022994
404.00	0.022951
404.25	0.021649
404.50	0.021172
404.75	0.021772
405.00	0.022763
405.25	0.023233
405.50	0.021360
405.75	0.022105
406.00	0.022777
406.25	0.022842
406.50	0.020658
406.75	0.019820
407.00	0.022141
407.25	0.019791
407.50	0.021251
407.75	0.020752
408.00	0.020008
408.25	0.020608
408.50	0.020796
408.75	0.018880
409.00	0.019118
409.25	0.019538
409.50	0.020123
409.75	0.018084
410.00	0.020405
410.25	0.019003
410.50	0.018540
410.75	0.016530
411.00	0.020044
411.25	0.017737
411.50	0.016580
411.75	0.019415
412.00	0.016255
412.25	0.017766
412.50	0.016103
412.75	0.013890
413.00	0.014946
413.25	0.014440
413.50	0.015886
413.75	0.014505
414.00	0.015127
414.25	0.014577
414.50	0.014462
414.75	0.014209
415.00	0.013739
415.25	0.013138
415.50	0.013030
415.75	0.011721
416.00	0.012582
416.25	0.011613
416.50	0.010926
416.75	0.011114
417.00	0.010268
417.25	0.0093422
417.50	0.010123
417.75	0.010644
418.00	0.0089879
418.25	0.0093205
418.50	0.0098050
418.75	0.010094
419.00	0.0097977
419.25	0.0078020
419.50	0.0093711
419.75	0.0089951
420.00	0.0081274
420.25	0.0081636
420.50	0.0080190
420.75	0.010123
421.00	0.0086191
421.25	0.0096748
421.50	0.0075851
421.75	0.0076430
422.00	0.0083154
422.25	0.0072959
422.50	0.0074188
422.75	0.0067897
423.00	0.0072019
423.25	0.0052134
423.50	0.0070717
423.75	0.0065150
424.00	0.0056906
424.25	0.0072236
424.50	0.0052713
424.75	0.0073176
425.00	0.0066451
425.25	0.0049603
425.50	0.0057846
425.75	0.0056400
426.00	0.0051917
426.25	0.0078237
426.50	0.0066740
426.75	0.0068620
427.00	0.0053074
427.25	0.0067463
427.50	0.0061462
427.75	0.0048880
428.00	0.0059437
428.25	0.0054376
428.50	0.0063848
428.75	0.0063848
429.00	0.0066162
429.25	0.0050399
429.50	0.0044325
429.75	0.0076140
430.00	0.0068693
430.25	0.0066885
430.50	0.0056400
430.75	0.0047506
431.00	0.0058859
431.25	0.0058570
431.50	0.0052929
431.75	0.0061968
432.00	0.0072453
432.25	0.0049025
432.50	0.0045265
432.75	0.0046711
433.00	0.0060883
433.25	0.0043963
433.50	0.0049965
433.75	0.0073537
434.00	0.0057774
434.25	0.0044831
434.50	0.0051845
434.75	0.0064571
435.00	0.0037889
435.25	0.0055677
435.50	0.0056256
435.75	0.0047289
436.00	0.0055460
436.25	0.0045193
436.50	0.0052713
436.75	0.0032177
437.00	0.0055822
437.25	0.0047073
437.50	0.0049097
437.75	0.0034129
438.00	0.0026103
438.25	0.0033985
438.50	0.0036588
438.75	0.0036877
439.00	0.0039625
439.25	0.0026465
439.50	0.0048229
439.75	0.0026754
440.00	0.0027694
440.25	0.0044108
440.50	0.0029863
440.75	0.0036949
441.00	0.0026392
441.25	0.0029068
441.50	0.0047579
441.75	0.0013377
442.00	0.0026248
442.25	0.0024657
442.50	0.0035937
442.75	0.0046639
443.00	0.0016197
443.25	0.0023645
443.50	0.0034419
443.75	0.0031020
444.00	0.0032105
444.25	0.0027332
444.50	0.0021475
444.75	0.0026682
445.00	0.0017209
445.25	0.0027043
445.50	0.0030152
445.75	0.0017715
446.00	0.0017499
446.25	0.0034057
446.50	0.0020319
446.75	0.0030803
447.00	0.0016775
447.25	0.0018222
447.50	0.0030152
447.75	0.0017065
448.00	0.0018728
448.25	0.0020463
448.50	0.0023500
448.75	0.0023717
449.00	0.0030008
449.25	0.0032394
449.50	0.0021548
449.75	0.0030225
450.00	0.0039697
450.25	0.0020463
450.50	0.00090385
450.75	0.0016052
451.00	0.0026031
451.25	0.0018655
451.50	0.0030731
451.75	0.0031888
452.00	0.0020897
452.25	0.0016559
452.50	0.0022777
452.75	0.00011569
453.00	0.00097616
453.25	0.0019812
453.50	0.0025886
453.75	0.0024295
454.00	0.0028923
454.25	0.0026826
454.50	0.0017354
454.75	0.0028562
455.00	0.0027983
455.25	0.0021114
455.50	0.0020319
455.75	0.0053146
456.00	0.0013811
456.25	0.0030442
456.50	0.0050760
456.75	0.0023355
457.00	0.0027477
457.25	0.0016342
457.50	0.0034274
457.75	0.0029285
458.00	0.0041577
458.25	0.0034852
458.50	0.0026248
458.75	0.0027188
459.00	0.0037383
459.25	0.0023355
459.50	0.0021765
459.75	0.0042879
460.00	0.0020680
460.25	0.0025308
460.50	0.0036660
460.75	0.0044831
461.00	0.0046639
461.25	0.0046349
461.50	0.0028272
461.75	0.0044108
462.00	0.0039697
462.25	0.0040348
462.50	0.0026826
462.75	0.0048736
463.00	0.0033045
463.25	0.0055822
463.50	0.0027477
463.75	0.0047362
464.00	0.0052713
464.25	0.0040565
464.50	0.0053363
464.75	0.0041866
465.00	0.0058570
465.25	0.0044542
465.50	0.0060883
465.75	0.0047217
466.00	0.0064137
466.25	0.0049531
466.50	0.0056906
466.75	0.0054809
467.00	0.0047362
467.25	0.0066451
467.50	0.0061606
467.75	0.0071368
468.00	0.0050543
468.25	0.0072091
468.50	0.0069994
468.75	0.0074550
469.00	0.0060883
469.25	0.0062330
469.50	0.0061390
469.75	0.0072236
470.00	0.0068693
470.25	0.0074043
470.50	0.0070573
470.75	0.0068259
471.00	0.0051483
471.25	0.0063776
471.50	0.0066162
471.75	0.0078454
472.00	0.0077297
472.25	0.0078020
472.50	0.0089373
472.75	0.0082503
473.00	0.0080407
473.25	0.0084962
473.50	0.0069416
473.75	0.0083371
474.00	0.0078888
474.25	0.0087854
474.50	0.0084022
474.75	0.0082937
475.00	0.010036
475.25	0.010832
475.50	0.0089300
475.75	0.010535
476.00	0.011830
476.25	0.012314
476.50	0.010861
476.75	0.012126
477.00	0.010976
477.25	0.012423
477.50	0.013023
477.75	0.012509
478.00	0.011331
478.25	0.013399
478.50	0.013413
478.75	0.012379
479.00	0.011989
479.25	0.013261
479.50	0.013449
479.75	0.013890
480.00	0.013449
480.25	0.015040
480.50	0.014086
480.75	0.014368
481.00	0.014049
481.25	0.014642
481.50	0.014823
481.75	0.016219
482.00	0.016219
482.25	0.015517
482.50	0.015958
482.75	0.015995
483.00	0.016291
483.25	0.016284
483.50	0.016891
483.75	0.017202
484.00	0.018518
484.25	0.017781
484.50	0.017108
484.75	0.018359
485.00	0.017976
485.25	0.019053
485.50	0.019082
485.75	0.017795
486.00	0.020253
486.25	0.018446
486.50	0.021439
486.75	0.020015
487.00	0.019769
487.25	0.021266
487.50	0.019856
487.75	0.019603
488.00	0.019176
488.25	0.021468
488.50	0.021273
488.75	0.021447
489.00	0.021150
489.25	0.021548
489.50	0.021707
489.75	0.021381
490.00	0.022293
490.25	0.022893
490.50	0.022712
490.75	0.021215
491.00	0.023182
491.25	0.023782
491.50	0.022820
491.75	0.025026
492.00	0.023522
492.25	0.024071
492.50	0.024071
492.75	0.024686
493.00	0.025257
493.25	0.024570
493.50	0.024165
493.75	0.025467
494.00	0.026776
494.25	0.026834
494.50	0.026862
494.75	0.026414
495.00	0.026472
495.25	0.026617
495.50	0.026248
495.75	0.027607
496.00	0.027557
496.25	0.029082
496.50	0.028504
496.75	0.029682
497.00	0.029458
497.25	0.028374
497.50	0.029458
497.75	0.029769
498.00	0.031418
498.25	0.031787
498.50	0.030615
498.75	0.030637
499.00	0.035236
499.25	0.033847
499.50	0.033818
499.75	0.034303
500.00	0.034151
500.25	0.035662
500.50	0.035677
500.75	0.034238
501.00	0.036385
501.25	0.035944
501.50	0.037000
501.75	0.038576
502.00	0.038837
502.25	0.040630
502.50	0.040283
502.75	0.040832
503.00	0.040456
503.25	0.043096
503.50	0.043298
503.75	0.043493
504.00	0.044896
504.25	0.043378
504.50	0.046443
504.75	0.047694
505.00	0.047767
505.25	0.047499
505.50	0.049444
505.75	0.050449
506.00	0.051982
506.25	0.051404
506.50	0.052243
506.75	0.054737
507.00	0.054245
507.25	0.055525
507.50	0.057282
507.75	0.058193
508.00	0.060095
508.25	0.056964
508.50	0.060948
508.75	0.059394
509.00	0.063544
509.25	0.062980
509.50	0.063241
509.75	0.066690
510.00	0.068013
510.25	0.067919
510.50	0.066928
510.75	0.070030
511.00	0.070956
511.25	0.074036
511.50	0.074868
511.75	0.074694
512.00	0.074998
512.25	0.076133
512.50	0.078859
512.75	0.076950
513.00	0.077811
513.25	0.083277
513.50	0.080262
513.75	0.081679
514.00	0.083111
514.25	0.085338
514.50	0.086574
514.75	0.087160
515.00	0.088259
515.25	0.088679
515.50	0.092323
515.75	0.092786
516.00	0.091766
516.25	0.092670
516.50	0.094586
516.75	0.098946
517.00	0.095671
517.25	0.097442
517.50	0.096980
517.75	0.099857
518.00	0.098549
518.25	0.099648
518.50	0.10107
518.75	0.10082
519.00	0.10420
519.25	0.10169
519.50	0.10408
519.75	0.10568
520.00	0.10673
520.25	0.10362
520.50	0.10523
520.75	0.10775
521.00	0.10850
521.25	0.10890
521.50	0.10744
521.75	0.10890
522.00	0.11032
522.25	0.11177
522.50	0.11064
522.75	0.11096
523.00	0.11491
523.25	0.11164
523.50	0.11146
523.75	0.11218
524.00	0.11318
524.25	0.11542
524.50	0.11449
524.75	0.11464
525.00	0.11308
525.25	0.11681
525.50	0.11639
525.75	0.11522
526.00	0.11665
526.25	0.11764
526.50	0.11683
526.75	0.11582
527.00	0.11741
527.25	0.11905
527.50	0.11950
527.75	0.11781
528.00	0.11859
528.25	0.11868
528.50	0.11819
528.75	0.12030
529.00	0.12046
529.25	0.11965
529.50	0.12246
529.75	0.12226
530.00	0.12244
530.25	0.12357
530.50	0.12151
530.75	0.12433
531.00	0.12384
531.25	0.12578
531.50	0.12574
531.75	0.12708
532.00	0.12673
532.25	0.12450
532.50	0.12771
532.75	0.12966
533.00	0.13043
533.25	0.13085
533.50	0.13334
533.75	0.13171
534.00	0.13239
534.25	0.13501
534.50	0.13435
534.75	0.13543
535.00	0.13407
535.25	0.13923
535.50	0.13928
535.75	0.14046
536.00	0.14060
536.25	0.14305
536.50	0.14526
536.75	0.14720
537.00	0.14966
537.25	0.15128
537.50	0.15371
537.75	0.15311
538.00	0.15611
538.25	0.15660
538.50	0.16068
538.75	0.16045
539.00	0.16425
539.25	0.16757
539.50	0.16653
539.75	0.17075
540.00	0.17182
540.25	0.17410
540.50	0.17824
540.75	0.18109
541.00	0.18516
541.25	0.18736
541.50	0.19097
541.75	0.19379
542.00	0.19551
542.25	0.20079
542.50	0.20426
542.75	0.20750
543.00	0.20960
543.25	0.21412
543.50	0.21687
543.75	0.22032
544.00	0.22430
544.25	0.22677
544.50	0.23188
544.75	0.23580
545.00	0.23839
545.25	0.24383
545.50	0.24698
545.75	0.25313
546.00	0.25350
546.25	0.25995
546.50	0.26349
546.75	0.26599
547.00	0.27238
547.25	0.27678
547.50	0.28120
547.75	0.28346
548.00	0.29062
548.25	0.29416
548.50	0.29925
548.75	0.30163
549.00	0.30914
549.25	0.31177
549.50	0.31566
549.75	0.32084
550.00	0.32342
550.25	0.32916
550.50	0.33369
550.75	0.33933
551.00	0.34320
551.25	0.34623
551.50	0.35325
551.75	0.35604
552.00	0.35920
552.25	0.36441
552.50	0.36883
552.75	0.37262
553.00	0.37521
553.25	0.38134
553.50	0.38419
553.75	0.38587
554.00	0.39175
554.25	0.39555
554.50	0.39799
554.75	0.40268
555.00	0.40808
555.25	0.40930
555.50	0.41564
555.75	0.41561
556.00	0.42172
556.25	0.42297
556.50	0.42614
556.75	0.42756
557.00	0.42733
557.25	0.43224
557.50	0.43057
557.75	0.43391
558.00	0.43675
558.25	0.43749
558.50	0.43965
558.75	0.44188
559.00	0.44224
559.25	0.44270
559.50	0.44407
559.75	0.44280
560.00	0.44432
560.25	0.44360
560.50	0.44387
560.75	0.44371
561.00	0.44524
561.25	0.44533
561.50	0.44501
561.75	0.44370
562.00	0.44482
562.25	0.44365
562.50	0.44313
562.75	0.44090
563.00	0.44002
563.25	0.44025
563.50	0.43693
563.75	0.43955
564.00	0.43884
564.25	0.43454
564.50	0.43388
564.75	0.43319
565.00	0.42994
565.25	0.42754
565.50	0.42772
565.75	0.42381
566.00	0.42389
566.25	0.42044
566.50	0.41997
566.75	0.41666
567.00	0.41284
567.25	0.41124
567.50	0.40833
567.75	0.40858
568.00	0.40471
568.25	0.40414
568.50	0.39955
568.75	0.39944
569.00	0.39627
569.25	0.39286
569.50	0.39279
569.75	0.38837
570.00	0.38545
570.25	0.38349
570.50	0.38255
570.75	0.37923
571.00	0.37928
571.25	0.37647
571.50	0.37260
571.75	0.36955
572.00	0.36834
572.25	0.36809
572.50	0.36583
572.75	0.36370
573.00	0.36289
573.25	0.36187
573.50	0.36193
573.75	0.35917
574.00	0.36000
574.25	0.35785
574.50	0.35839
574.75	0.35537
575.00	0.35606
575.25	0.35437
575.50	0.35472
575.75	0.35449
576.00	0.35364
576.25	0.35366
576.50	0.35281
576.75	0.35659
577.00	0.35460
577.25	0.35436
577.50	0.35576
577.75	0.35517
578.00	0.35707
578.25	0.35576
578.50	0.35964
578.75	0.36101
579.00	0.36246
579.25	0.36392
579.50	0.36620
579.75	0.37052
580.00	0.37193
580.25	0.37349
580.50	0.37593
580.75	0.37840
581.00	0.38183
581.25	0.38412
581.50	0.38900
581.75	0.39208
582.00	0.39678
582.25	0.39968
582.50	0.40479
582.75	0.40798
583.00	0.41314
583.25	0.41912
583.50	0.42036
583.75	0.42882
584.00	0.43345
584.25	0.43761
584.50	0.44264
584.75	0.44941
585.00	0.45745
585.25	0.46185
585.50	0.46772
585.75	0.47453
586.00	0.48233
586.25	0.48872
586.50	0.49543
586.75	0.50256
587.00	0.50973
587.25	0.51794
587.50	0.52501
587.75	0.53009
588.00	0.53862
588.25	0.54878
588.50	0.55786
588.75	0.56166
589.00	0.57288
589.25	0.58050
589.50	0.59096
589.75	0.59573
590.00	0.60627
590.25	0.61464
590.50	0.62597
590.75	0.63332
591.00	0.64051
591.25	0.65046
591.50	0.66142
591.75	0.66996
592.00	0.67679
592.25	0.68752
592.50	0.69847
592.75	0.70935
593.00	0.71714
593.25	0.72479
593.50	0.73562
593.75	0.74699
594.00	0.75474
594.25	0.76503
594.50	0.77464
594.75	0.78925
595.00	0.79887
595.25	0.80931
595.50	0.82066
595.75	0.82847
596.00	0.83681
596.25	0.84555
596.50	0.85504
596.75	0.86394
597.00	0.87138
597.25	0.87963
597.50	0.88895
597.75	0.89164
598.00	0.89880
598.25	0.90732
598.50	0.91381
598.75	0.92128
599.00	0.92893
599.25	0.93436
599.50	0.94122
599.75	0.94635
600.00	0.95050
600.25	0.95670
600.50	0.96395
600.75	0.96423
601.00	0.97088
601.25	0.97720
601.50	0.97646
601.75	0.98180
602.00	0.98525
602.25	0.98633
602.50	0.98900
602.75	0.99083
603.00	0.99370
603.25	0.99562
603.50	1.00000
603.75	0.99818
604.00	0.99722
604.25	0.99656
604.50	0.99991
604.75	0.99820
605.00	0.99458
605.25	0.99610
605.50	0.99277
605.75	0.99247
606.00	0.98761
606.25	0.98727
606.50	0.98255
606.75	0.97742
607.00	0.97640
607.25	0.97155
607.50	0.97016
607.75	0.96101
608.00	0.95392
608.25	0.95004
608.50	0.94203
608.75	0.93884
609.00	0.93134
609.25	0.92623
609.50	0.91541
609.75	0.90626
610.00	0.90065
610.25	0.89050
610.50	0.88390
610.75	0.87368
611.00	0.86427
611.25	0.85519
611.50	0.84749
611.75	0.83801
612.00	0.82588
612.25	0.81839
612.50	0.80160
612.75	0.79340
613.00	0.78367
613.25	0.77796
613.50	0.76788
613.75	0.76048
614.00	0.75179
614.25	0.74234
614.50	0.73334
614.75	0.71734
615.00	0.70875
615.25	0.69812
615.50	0.68419
615.75	0.67410
616.00	0.65967
616.25	0.64885
616.50	0.63828
616.75	0.62409
617.00	0.61384
617.25	0.60118
617.50	0.59003
617.75	0.57507
618.00	0.56341
618.25	0.55009
618.50	0.54016
618.75	0.52975
619.00	0.51527
619.25	0.50521
619.50	0.49288
619.75	0.48415
620.00	0.46872
620.25	0.46106
620.50	0.44812
620.75	0.43772
621.00	0.42845
621.25	0.41430
621.50	0.40708
621.75	0.39601
622.00	0.38697
622.25	0.37534
622.50	0.36530
622.75	0.35688
623.00	0.34699
623.25	0.33950
623.50	0.32847
623.75	0.32085
624.00	0.31223
624.25	0.30507
624.50	0.29433
624.75	0.28753
625.00	0.27965
625.25	0.27322
625.50	0.26461
625.75	0.25551
626.00	0.25026
626.25	0.24361
626.50	0.23677
626.75	0.23006
627.00	0.22172
627.25	0.21621
627.50	0.21063
627.75	0.20462
628.00	0.19824
628.25	0.19277
628.50	0.18582
628.75	0.18139
629.00	0.17511
629.25	0.17027
629.50	0.16649
629.75	0.16256
630.00	0.15592
630.25	0.15272
630.50	0.14548
630.75	0.14237
631.00	0.13644
631.25	0.13409
631.50	0.13020
631.75	0.12525
632.00	0.12249
632.25	0.11703
632.50	0.11629
632.75	0.11088
633.00	0.10690
633.25	0.10357
633.50	0.10083
633.75	0.098361
634.00	0.094456
634.25	0.093386
634.50	0.089835
634.75	0.086885
635.00	0.082518
635.25	0.077811
635.50	0.076061
635.75	0.074311
636.00	0.072518
636.25	0.066936
636.50	0.066212
636.75	0.064210
637.00	0.062886
637.25	0.062387
637.50	0.059690
637.75	0.058627
638.00	0.056219
638.25	0.055055
638.50	0.051071
638.75	0.049690
639.00	0.048989
639.25	0.047355
639.50	0.047297
639.75	0.044831
640.00	0.043595
640.25	0.042148
640.50	0.040572
640.75	0.038866
641.00	0.039625
641.25	0.037680
641.50	0.036458
641.75	0.037123
642.00	0.032799
642.25	0.033117
642.50	0.033717
642.75	0.031570
643.00	0.031302
643.25	0.028142
643.50	0.030355
643.75	0.027824
644.00	0.027022
644.25	0.026812
644.50	0.025409
644.75	0.024946
645.00	0.024216
645.25	0.023797
645.50	0.022734
645.75	0.023059
646.00	0.022191
646.25	0.020022
646.50	0.020094
646.75	0.019212
647.00	0.020817
647.25	0.017217
647.50	0.018721
647.75	0.017940
648.00	0.014953
648.25	0.017781
648.50	0.015510
648.75	0.015958
649.00	0.015915
649.25	0.016146
649.50	0.014787
649.75	0.013117
650.00	0.014476
650.25	0.013919
650.50	0.013131
650.75	0.012994
651.00	0.012285
651.25	0.010839
651.50	0.012148
651.75	0.011584
652.00	0.010275
652.25	0.012133
652.50	0.010369
652.75	0.011685
653.00	0.0093928
653.25	0.0096459
653.50	0.0073465
653.75	0.0088867
654.00	0.0077225
654.25	0.0079900
654.50	0.0092482
654.75	0.0095953
655.00	0.0097182
655.25	0.0080045
655.50	0.0078671
655.75	0.0073248
656.00	0.0081419
656.25	0.0071730
656.50	0.0086697
656.75	0.0089662
657.00	0.0079900
657.25	0.0078020
657.50	0.0060956
657.75	0.0061896
658.00	0.0072959
658.25	0.0060450
658.50	0.0064210
658.75	0.0059003
659.00	0.0068114
659.25	0.0058208
659.50	0.0048229
659.75	0.0053291
660.00	0.0057268
660.25	0.0061751
660.50	0.0079611
660.75	0.0050471
661.00	0.0060160
661.25	0.0042879
661.50	0.0058208
661.75	0.0030442
662.00	0.0051122
662.25	0.0044614
662.50	0.0036732
662.75	0.0045843
663.00	0.0035503
663.25	0.0064426
663.50	0.0049169
663.75	0.0042517
664.00	0.0030080
664.25	0.0058570
664.50	0.0042517
664.75	0.0027116
665.00	0.0031960
665.25	0.0023355
665.50	0.0053869
665.75	0.0032539
666.00	0.0029719
666.25	0.0050037
666.50	0.0036588
666.75	0.0036516
667.00	0.0022994
667.25	0.0018222
667.50	0.0026103
667.75	0.0041433
668.00	0.0037456
668.25	0.0041649
668.50	0.0035142
668.75	0.0031599
669.00	0.0028272
669.25	0.0025814
669.50	0.0038829
669.75	0.0030297
670.00	0.0036164
670.25	0.0037383
670.50	0.0017426
670.75	0.0037022
671.00	0.0034419
671.25	0.0030803
671.50	0.0010123
671.75	0.0023066
672.00	0.0031454
672.25	0.0034491
672.50	0.0031382
672.75	0.0028779
673.00	0.0023500
673.25	0.0024368
673.50	0.0014462
673.75	0.0019740
674.00	0.0027477
674.25	0.0036299
674.50	0.0012437
674.75	0.0011208
675.00	0.0030369
675.25	0.0021909
675.50	0.0036588
675.75	0.0027839
676.00	0.0025814
676.25	0.0018366
676.50	0.0022849
676.75	0.0031816
677.00	0.00052062
677.25	0.0037745
677.50	0.0025597
677.75	0.0031526
678.00	0.0019162
678.25	0.0029357
678.50	0.0030152
678.75	0.0023428
679.00	0.00060016
679.25	0.00058570
679.50	0.0024585
679.75	0.0013088
680.00	0.0036196
680.25	0.0025597
680.50	0.0018655
680.75	0.0044108
681.00	0.0015040
681.25	0.0011425
681.50	0.0013739
681.75	0.0029429
682.00	0.0028417
682.25	0.0015402
682.50	0.0028779
682.75	0.0018511
683.00	0.0039336
683.25	0.0010195
683.50	0.0026320
683.75	0.0021548
684.00	0.0045120
684.25	0.0012582
684.50	0.0018800
684.75	0.0039769
685.00	0.0014462
685.25	0.0032177
685.50	0.00042662
685.75	0.0027043
686.00	0.0025959
686.25	0.00067970
686.50	0.0023428
686.75	0.0022199
687.00	0.0035359
687.25	0.0012292
687.50	0.0034202
687.75	0.0018583
688.00	0.00086770
688.25	0.0034708
688.50	0.0014968
688.75	0.0018511
689.00	0.0020680
689.25	0.0015619
689.50	0.0010774
689.75	0.00036877
690.00	7.2308e-05
690.25	0.00083877
690.50	0.0019379
690.75	9.4001e-05
691.00	8.6770e-05
691.25	0.00078816
691.50	0.0013522
691.75	0.00067246
692.00	0.00089662
692.25	0.0025380
692.50	0.00050616
692.75	0.0024729
693.00	0.0019523
693.25	0.00043385
693.50	0.0031816
693.75	0.0012654
694.00	0.0017137
694.25	0.00031816
694.50	0.0027260
694.75	0.0030369
695.00	0.0020246
695.25	0.00031092
695.50	0.00051339
695.75	0.0025814
696.00	0.0020319
696.25	0.0032972
696.50	0.0018945
696.75	0.0017065
697.00	0.0017354
697.25	0.0017426
697.50	0.0017209
697.75	0.00087493
698.00	0.0014389
698.25	0.0015763
698.50	0.0026465
698.75	0.0015835
699.00	0.0014895
699.25	0.0011497
699.50	0.0011208
699.75	0.00076646
700.00	0.00083154
