Wavelength (nm)	K03 abs N
200.00	0.17889
201.00	0.17298
202.00	0.17068
203.00	0.16643
204.00	0.16250
205.00	0.15834
206.00	0.15670
207.00	0.15588
208.00	0.15577
209.00	0.15543
210.00	0.15555
211.00	0.15537
212.00	0.15553
213.00	0.15534
214.00	0.15507
215.00	0.15441
216.00	0.15400
217.00	0.15322
218.00	0.15237
219.00	0.15131
220.00	0.15030
221.00	0.14907
222.00	0.14801
223.00	0.14670
224.00	0.14578
225.00	0.14471
226.00	0.14335
227.00	0.14184
228.00	0.13964
229.00	0.13692
230.00	0.13353
231.00	0.12999
232.00	0.12628
233.00	0.12152
234.00	0.11644
235.00	0.11066
236.00	0.10482
237.00	0.099028
238.00	0.093837
239.00	0.089631
240.00	0.086043
241.00	0.082787
242.00	0.079712
243.00	0.076640
244.00	0.074052
245.00	0.071780
246.00	0.069802
247.00	0.067871
248.00	0.066064
249.00	0.064485
250.00	0.063023
251.00	0.061723
252.00	0.060875
253.00	0.060121
254.00	0.059394
255.00	0.058742
256.00	0.058081
257.00	0.057189
258.00	0.056038
259.00	0.054411
260.00	0.052912
261.00	0.051223
262.00	0.049812
263.00	0.048508
264.00	0.047917
265.00	0.047154
266.00	0.046798
267.00	0.047130
268.00	0.047387
269.00	0.048109
270.00	0.048989
271.00	0.050492
272.00	0.052511
273.00	0.054139
274.00	0.055555
275.00	0.055989
276.00	0.055346
277.00	0.053428
278.00	0.050633
279.00	0.047208
280.00	0.043460
281.00	0.039824
282.00	0.036631
283.00	0.033752
284.00	0.031268
285.00	0.029224
286.00	0.027595
287.00	0.026061
288.00	0.024647
289.00	0.023372
290.00	0.022317
291.00	0.021108
292.00	0.020403
293.00	0.019330
294.00	0.018371
295.00	0.017709
296.00	0.017196
297.00	0.016464
298.00	0.015710
299.00	0.015483
300.00	0.014838
301.00	0.014741
302.00	0.014416
303.00	0.014138
304.00	0.013918
305.00	0.013677
306.00	0.013508
307.00	0.013563
308.00	0.013718
309.00	0.013834
310.00	0.013892
311.00	0.014166
312.00	0.014534
313.00	0.014559
314.00	0.014842
315.00	0.015155
316.00	0.015408
317.00	0.015592
318.00	0.015918
319.00	0.015996
320.00	0.016408
321.00	0.017010
322.00	0.017421
323.00	0.017884
324.00	0.018242
325.00	0.018956
326.00	0.019351
327.00	0.019326
328.00	0.019304
329.00	0.019089
330.00	0.018323
331.00	0.017829
332.00	0.017444
333.00	0.016639
334.00	0.015970
335.00	0.015315
336.00	0.014996
337.00	0.014820
338.00	0.014569
339.00	0.014590
340.00	0.014519
341.00	0.014441
342.00	0.014404
343.00	0.014287
344.00	0.014030
345.00	0.014130
346.00	0.013964
347.00	0.013734
348.00	0.013956
349.00	0.013891
350.00	0.014067
351.00	0.014004
352.00	0.014465
353.00	0.014526
354.00	0.014719
355.00	0.014721
356.00	0.014698
357.00	0.014745
358.00	0.014691
359.00	0.014556
360.00	0.014853
361.00	0.014547
362.00	0.014424
363.00	0.014237
364.00	0.013933
365.00	0.013774
366.00	0.013866
367.00	0.013830
368.00	0.013479
369.00	0.013530
370.00	0.013123
371.00	0.013485
372.00	0.013715
373.00	0.013840
374.00	0.014179
375.00	0.014508
376.00	0.014292
377.00	0.014812
378.00	0.015058
379.00	0.015290
380.00	0.015551
381.00	0.015894
382.00	0.015944
383.00	0.015731
384.00	0.015968
385.00	0.016110
386.00	0.016474
387.00	0.016796
388.00	0.017058
389.00	0.016638
390.00	0.016627
391.00	0.017742
392.00	0.017842
393.00	0.017864
394.00	0.017834
395.00	0.017657
396.00	0.017906
397.00	0.018385
398.00	0.018698
399.00	0.019277
400.00	0.019324
401.00	0.019179
402.00	0.019674
403.00	0.020183
404.00	0.020338
405.00	0.020770
406.00	0.021152
407.00	0.021542
408.00	0.021898
409.00	0.021648
410.00	0.022663
411.00	0.023188
412.00	0.023021
413.00	0.023365
414.00	0.023428
415.00	0.023301
416.00	0.023501
417.00	0.022990
418.00	0.022625
419.00	0.022831
420.00	0.022267
421.00	0.021488
422.00	0.020894
423.00	0.020320
424.00	0.019826
425.00	0.019056
426.00	0.017612
427.00	0.017503
428.00	0.017251
429.00	0.016485
430.00	0.016088
431.00	0.015487
432.00	0.015329
433.00	0.015339
434.00	0.015185
435.00	0.015324
436.00	0.015557
437.00	0.015210
438.00	0.015575
439.00	0.016203
440.00	0.016338
441.00	0.016461
442.00	0.016952
443.00	0.016812
444.00	0.017163
445.00	0.017240
446.00	0.017314
447.00	0.017239
448.00	0.016667
449.00	0.016346
450.00	0.016099
451.00	0.015541
452.00	0.014755
453.00	0.014566
454.00	0.013907
455.00	0.012978
456.00	0.011664
457.00	0.011352
458.00	0.010706
459.00	0.0099456
460.00	0.0091816
461.00	0.0084463
462.00	0.0078106
463.00	0.0068689
464.00	0.0065172
465.00	0.0065426
466.00	0.0060625
467.00	0.0057071
468.00	0.0054443
469.00	0.0052768
470.00	0.0057060
471.00	0.0049826
472.00	0.0042640
473.00	0.0049403
474.00	0.0044499
475.00	0.0048406
476.00	0.0051581
477.00	0.0050075
478.00	0.0045577
479.00	0.0043860
480.00	0.0044868
481.00	0.0044515
482.00	0.0044477
483.00	0.0043182
484.00	0.0042375
485.00	0.0038804
486.00	0.0040625
487.00	0.0032496
488.00	0.0026731
489.00	0.0031857
490.00	0.0027392
491.00	0.0027419
492.00	0.0028075
493.00	0.0022087
494.00	0.0017346
495.00	0.0020028
496.00	0.0020770
497.00	0.0020299
498.00	0.0016885
499.00	0.0014018
500.00	0.0025658
501.00	0.0016500
502.00	0.0024347
503.00	0.0026660
504.00	0.0024867
505.00	0.0023469
506.00	0.0023664
507.00	0.0022347
508.00	0.0021924
509.00	0.0028936
510.00	0.0028438
511.00	0.0026384
512.00	0.0031337
513.00	0.0028584
514.00	0.0030903
515.00	0.0036940
516.00	0.0032897
517.00	0.0035596
518.00	0.0038040
519.00	0.0035764
520.00	0.0035363
521.00	0.0045361
522.00	0.0045458
523.00	0.0044830
524.00	0.0039200
525.00	0.0042017
526.00	0.0041221
527.00	0.0052952
528.00	0.0051132
529.00	0.0054296
530.00	0.0057157
531.00	0.0057835
532.00	0.0060013
533.00	0.0068401
534.00	0.0076698
535.00	0.0079299
536.00	0.0082355
537.00	0.0081146
538.00	0.0079488
539.00	0.0085097
540.00	0.0095365
541.00	0.0098703
542.00	0.010019
543.00	0.010813
544.00	0.010692
545.00	0.011344
546.00	0.011875
547.00	0.012408
548.00	0.012819
549.00	0.013382
550.00	0.013800
551.00	0.014273
552.00	0.015082
553.00	0.015235
554.00	0.015399
555.00	0.016120
556.00	0.016499
557.00	0.017037
558.00	0.017561
559.00	0.017643
560.00	0.018634
561.00	0.019270
562.00	0.019759
563.00	0.020307
564.00	0.021189
565.00	0.021481
566.00	0.022963
567.00	0.022972
568.00	0.024189
569.00	0.025134
570.00	0.026036
571.00	0.026973
572.00	0.028048
573.00	0.029128
574.00	0.030597
575.00	0.031998
576.00	0.033439
577.00	0.035406
578.00	0.036930
579.00	0.038405
580.00	0.040411
581.00	0.042559
582.00	0.044209
583.00	0.046034
584.00	0.048353
585.00	0.050616
586.00	0.052493
587.00	0.054866
588.00	0.057143
589.00	0.059068
590.00	0.061433
591.00	0.063757
592.00	0.065920
593.00	0.067911
594.00	0.069526
595.00	0.071569
596.00	0.073238
597.00	0.074833
598.00	0.076829
599.00	0.078252
600.00	0.079724
601.00	0.081170
602.00	0.082702
603.00	0.083754
604.00	0.084711
605.00	0.086122
606.00	0.087428
607.00	0.088550
608.00	0.089626
609.00	0.091084
610.00	0.092889
611.00	0.094400
612.00	0.095983
613.00	0.098031
614.00	0.10040
615.00	0.10292
616.00	0.10545
617.00	0.10845
618.00	0.11165
619.00	0.11582
620.00	0.12001
621.00	0.12470
622.00	0.12991
623.00	0.13525
624.00	0.14104
625.00	0.14745
626.00	0.15427
627.00	0.16188
628.00	0.16986
629.00	0.17795
630.00	0.18634
631.00	0.19472
632.00	0.20451
633.00	0.21349
634.00	0.22323
635.00	0.23290
636.00	0.24314
637.00	0.25278
638.00	0.26385
639.00	0.27346
640.00	0.28240
641.00	0.29303
642.00	0.30318
643.00	0.31121
644.00	0.31924
645.00	0.32737
646.00	0.33232
647.00	0.33837
648.00	0.34376
649.00	0.34875
650.00	0.35034
651.00	0.35321
652.00	0.35450
653.00	0.35599
654.00	0.35628
655.00	0.35471
656.00	0.35318
657.00	0.35027
658.00	0.34606
659.00	0.34433
660.00	0.34068
661.00	0.33665
662.00	0.33226
663.00	0.32918
664.00	0.32467
665.00	0.32099
666.00	0.31785
667.00	0.31573
668.00	0.31202
669.00	0.31118
670.00	0.31149
671.00	0.31240
672.00	0.31376
673.00	0.31641
674.00	0.32006
675.00	0.32535
676.00	0.33223
677.00	0.33920
678.00	0.34838
679.00	0.35860
680.00	0.37054
681.00	0.38366
682.00	0.39849
683.00	0.41481
684.00	0.43329
685.00	0.45229
686.00	0.47244
687.00	0.49396
688.00	0.51774
689.00	0.54225
690.00	0.56949
691.00	0.59607
692.00	0.62243
693.00	0.65035
694.00	0.67913
695.00	0.70885
696.00	0.73862
697.00	0.76631
698.00	0.79370
699.00	0.81820
700.00	0.84864
701.00	0.87157
702.00	0.89460
703.00	0.91935
704.00	0.93659
705.00	0.95369
706.00	0.97059
707.00	0.98474
708.00	0.99330
709.00	0.99605
710.00	0.99572
711.00	1.0000
712.00	0.99634
713.00	0.98975
714.00	0.97882
715.00	0.96710
716.00	0.95174
717.00	0.93274
718.00	0.91299
719.00	0.88527
720.00	0.86118
721.00	0.83352
722.00	0.80623
723.00	0.77234
724.00	0.73910
725.00	0.70632
726.00	0.67403
727.00	0.63895
728.00	0.60484
729.00	0.56991
730.00	0.53486
731.00	0.50190
732.00	0.47087
733.00	0.43811
734.00	0.40673
735.00	0.37805
736.00	0.34934
737.00	0.32291
738.00	0.29789
739.00	0.27277
740.00	0.25120
741.00	0.23041
742.00	0.21011
743.00	0.19232
744.00	0.17513
745.00	0.15974
746.00	0.14496
747.00	0.13168
748.00	0.11978
749.00	0.10853
750.00	0.098870
751.00	0.089736
752.00	0.081378
753.00	0.073499
754.00	0.066617
755.00	0.060536
756.00	0.054544
757.00	0.049066
758.00	0.044815
759.00	0.040606
760.00	0.036470
761.00	0.033274
762.00	0.030291
763.00	0.027629
764.00	0.025030
765.00	0.022731
766.00	0.020607
767.00	0.018711
768.00	0.017202
769.00	0.015278
770.00	0.014163
771.00	0.012603
772.00	0.011840
773.00	0.010532
774.00	0.0097430
775.00	0.0090748
776.00	0.0079418
777.00	0.0074758
778.00	0.0068797
779.00	0.0066787
780.00	0.0059699
781.00	0.0055310
782.00	0.0051457
783.00	0.0045334
784.00	0.0042689
785.00	0.0045117
786.00	0.0036349
787.00	0.0034063
788.00	0.0032740
789.00	0.0030372
790.00	0.0029289
791.00	0.0027804
792.00	0.0025409
793.00	0.0028118
794.00	0.0024428
795.00	0.0021832
796.00	0.0021561
797.00	0.0021561
798.00	0.0015146
799.00	0.0019470
800.00	0.0015834
801.00	0.0015731
802.00	0.0014837
803.00	0.0011661
804.00	0.0017459
805.00	0.0014203
806.00	0.0010426
807.00	0.00098459
808.00	0.00071149
809.00	0.0012133
810.00	0.0010485
811.00	0.0015118
812.00	0.0011845
813.00	0.0015411
814.00	0.00070932
815.00	0.0014896
816.00	0.0013401
817.00	0.0011184
818.00	0.00046873
819.00	0.00087297
820.00	0.00075213
821.00	0.00095804
822.00	0.0010805
823.00	0.00065025
824.00	0.0011732
825.00	0.0013043
826.00	0.0012799
827.00	0.00085617
828.00	0.00072558
829.00	0.00083070
830.00	0.00083774
831.00	0.0012284
832.00	0.0012859
833.00	0.0011233
834.00	0.00086375
835.00	0.0010409
836.00	0.00068277
837.00	0.0011081
838.00	0.0013720
839.00	0.00085725
840.00	0.00070444
841.00	0.00053646
842.00	0.00086213
843.00	0.00087459
844.00	0.00052616
845.00	0.00085888
846.00	0.00060745
847.00	0.00026173
848.00	0.00089681
849.00	0.00053646
850.00	0.0010258
851.00	0.00083558
852.00	0.00076784
853.00	0.00084533
854.00	0.00094720
855.00	0.0010101
856.00	0.0010041
857.00	0.00080632
858.00	0.0012133
859.00	0.00058415
860.00	0.00046439
861.00	0.0015048
862.00	0.00075971
863.00	0.00062750
864.00	0.00065784
865.00	0.00063346
866.00	0.0015221
867.00	0.0011184
868.00	0.0010496
869.00	0.00033596
870.00	0.0010036
871.00	0.00034572
872.00	0.00077109
873.00	0.00091848
874.00	0.00067301
875.00	0.0015173
876.00	0.0010821
877.00	0.00059498
878.00	0.00058631
879.00	0.00043079
880.00	0.00084045
881.00	0.00076567
882.00	0.0010480
883.00	0.00062479
884.00	0.0010372
885.00	0.00055651
886.00	0.00069252
887.00	0.0011011
888.00	0.0013975
889.00	0.00044542
890.00	0.00091740
891.00	0.00058035
892.00	0.00096671
893.00	0.00079277
894.00	0.00092715
895.00	0.00020754
896.00	0.00069306
897.00	0.0014479
898.00	0.00082528
899.00	0.00079602
900.00	3.7932e-06
