Wavelength (nm)	K05 abs N
220.00	0.21677
220.25	0.21859
220.50	0.21867
220.75	0.21675
221.00	0.21737
221.25	0.21542
221.50	0.21455
221.75	0.21451
222.00	0.21614
222.25	0.21157
222.50	0.21039
222.75	0.20862
223.00	0.20631
223.25	0.20349
223.50	0.20092
223.75	0.19859
224.00	0.19785
224.25	0.19430
224.50	0.19146
224.75	0.18603
225.00	0.18323
225.25	0.17880
225.50	0.17396
225.75	0.17155
226.00	0.16821
226.25	0.16292
226.50	0.16024
226.75	0.15555
227.00	0.14990
227.25	0.14626
227.50	0.14196
227.75	0.13879
228.00	0.13631
228.25	0.13220
228.50	0.12785
228.75	0.12285
229.00	0.12116
229.25	0.11610
229.50	0.11139
229.75	0.10840
230.00	0.10405
230.25	0.10128
230.50	0.098256
230.75	0.095429
231.00	0.091607
231.25	0.089994
231.50	0.087007
231.75	0.083159
232.00	0.082877
232.25	0.079016
232.50	0.076909
232.75	0.076947
233.00	0.075592
233.25	0.072508
233.50	0.071525
233.75	0.069964
234.00	0.068956
234.25	0.067131
234.50	0.063585
234.75	0.064317
235.00	0.065146
235.25	0.062988
235.50	0.061799
235.75	0.061228
236.00	0.058806
236.25	0.059230
236.50	0.059300
236.75	0.058144
237.00	0.057302
237.25	0.056724
237.50	0.057559
237.75	0.057791
238.00	0.057431
238.25	0.055774
238.50	0.055427
238.75	0.055806
239.00	0.054373
239.25	0.055568
239.50	0.055529
239.75	0.055985
240.00	0.056487
240.25	0.057784
240.50	0.056493
240.75	0.056487
241.00	0.056063
241.25	0.056365
241.50	0.057354
241.75	0.057733
242.00	0.058664
242.25	0.057855
242.50	0.059621
242.75	0.058780
243.00	0.060270
243.25	0.059281
243.50	0.059878
243.75	0.060026
244.00	0.060309
244.25	0.061484
244.50	0.061696
244.75	0.062287
245.00	0.062564
245.25	0.063842
245.50	0.063527
245.75	0.063983
246.00	0.064716
246.25	0.065422
246.50	0.066470
246.75	0.064979
247.00	0.065127
247.25	0.066258
247.50	0.066303
247.75	0.066341
248.00	0.066521
248.25	0.065898
248.50	0.066733
248.75	0.065814
249.00	0.067459
249.25	0.067555
249.50	0.067555
249.75	0.067992
250.00	0.067973
250.25	0.068133
250.50	0.067966
250.75	0.068647
251.00	0.069071
251.25	0.067433
251.50	0.068410
251.75	0.069495
252.00	0.068031
252.25	0.069270
252.50	0.067857
252.75	0.068673
253.00	0.067690
253.25	0.068422
253.50	0.067529
253.75	0.066861
254.00	0.067414
254.25	0.067433
254.50	0.066637
254.75	0.065069
255.00	0.066213
255.25	0.065551
255.50	0.064902
255.75	0.065249
256.00	0.064574
256.25	0.064883
256.50	0.064061
256.75	0.064388
257.00	0.063399
257.25	0.062962
257.50	0.062718
257.75	0.059570
258.00	0.060392
258.25	0.058555
258.50	0.058086
258.75	0.056840
259.00	0.054803
259.25	0.054495
259.50	0.051418
259.75	0.051065
260.00	0.048585
260.25	0.046851
260.50	0.046118
260.75	0.044660
261.00	0.043818
261.25	0.043112
261.50	0.042868
261.75	0.040388
262.00	0.038576
262.25	0.038352
262.50	0.036656
262.75	0.035820
263.00	0.035474
263.25	0.035641
263.50	0.034362
263.75	0.033964
264.00	0.033052
264.25	0.032454
264.50	0.031381
264.75	0.031683
265.00	0.030424
265.25	0.029011
265.50	0.029480
265.75	0.029326
266.00	0.028414
266.25	0.028279
266.50	0.028067
266.75	0.029005
267.00	0.028677
267.25	0.027739
267.50	0.026621
267.75	0.026062
268.00	0.026647
268.25	0.027148
268.50	0.026005
268.75	0.025786
269.00	0.025882
269.25	0.026384
269.50	0.027007
269.75	0.026172
270.00	0.026608
270.25	0.025870
270.50	0.025953
270.75	0.025715
271.00	0.025086
271.25	0.026904
271.50	0.025683
271.75	0.024874
272.00	0.025015
272.25	0.025227
272.50	0.025099
272.75	0.025947
273.00	0.024437
273.25	0.025176
273.50	0.024000
273.75	0.024906
274.00	0.024174
274.25	0.025221
274.50	0.023910
274.75	0.023184
275.00	0.024283
275.25	0.023499
275.50	0.022805
275.75	0.022664
276.00	0.022606
276.25	0.022375
276.50	0.020968
276.75	0.020608
277.00	0.021199
277.25	0.020730
277.50	0.020827
277.75	0.019837
278.00	0.019934
278.25	0.019921
278.50	0.019870
278.75	0.019561
279.00	0.018495
279.25	0.018353
279.50	0.017595
279.75	0.018039
280.00	0.018938
280.25	0.018392
280.50	0.018514
280.75	0.017082
281.00	0.018842
281.25	0.017897
281.50	0.016767
281.75	0.016613
282.00	0.017049
282.25	0.017435
282.50	0.016195
282.75	0.017936
283.00	0.017396
283.25	0.019163
283.50	0.019291
283.75	0.018328
284.00	0.018251
284.25	0.016927
284.50	0.017775
284.75	0.016844
285.00	0.018013
285.25	0.018122
285.50	0.017762
285.75	0.019523
286.00	0.019182
286.25	0.019876
286.50	0.021276
286.75	0.019266
287.00	0.021142
287.25	0.019491
287.50	0.019060
287.75	0.020942
288.00	0.021334
288.25	0.021244
288.50	0.021912
288.75	0.022645
289.00	0.023306
289.25	0.023930
289.50	0.022047
289.75	0.023332
290.00	0.023441
290.25	0.021835
290.50	0.024000
290.75	0.023859
291.00	0.023660
291.25	0.024643
291.50	0.026005
291.75	0.026583
292.00	0.027733
292.25	0.028246
292.50	0.026563
292.75	0.028895
293.00	0.029037
293.25	0.029011
293.50	0.029159
293.75	0.028028
294.00	0.028728
294.25	0.029904
294.50	0.031548
294.75	0.030444
295.00	0.031414
295.25	0.034221
295.50	0.032705
295.75	0.034150
296.00	0.033007
296.25	0.033578
296.50	0.034870
296.75	0.034465
297.00	0.035827
297.25	0.035538
297.50	0.036032
297.75	0.039052
298.00	0.039578
298.25	0.039264
298.50	0.039598
298.75	0.040561
299.00	0.040504
299.25	0.039623
299.50	0.040285
299.75	0.040940
300.00	0.041005
300.25	0.042058
300.50	0.042296
300.75	0.043349
301.00	0.043953
301.25	0.043966
301.50	0.044557
301.75	0.045681
302.00	0.046157
302.25	0.044448
302.50	0.046048
302.75	0.046304
303.00	0.045071
303.25	0.045020
303.50	0.046471
303.75	0.047242
304.00	0.048463
304.25	0.048238
304.50	0.048572
304.75	0.050107
305.00	0.048726
305.25	0.049510
305.50	0.049394
305.75	0.048964
306.00	0.050005
306.25	0.051360
306.50	0.049684
306.75	0.052266
307.00	0.050628
307.25	0.052234
307.50	0.052163
307.75	0.054000
308.00	0.052947
308.25	0.054000
308.50	0.053949
308.75	0.053544
309.00	0.055144
309.25	0.054020
309.50	0.054983
309.75	0.055529
310.00	0.053904
310.25	0.057020
310.50	0.051142
310.75	0.056133
311.00	0.054180
311.25	0.051200
311.50	0.056326
311.75	0.050223
312.00	0.053647
312.25	0.052844
312.50	0.057360
312.75	0.053744
313.00	0.057123
313.25	0.051842
313.50	0.050127
313.75	0.052118
314.00	0.048694
314.25	0.050435
314.50	0.048097
314.75	0.050718
315.00	0.044120
315.25	0.047936
315.50	0.042469
315.75	0.043613
316.00	0.040947
316.25	0.044165
316.50	0.042244
316.75	0.037394
317.00	0.038307
317.25	0.041544
317.50	0.037131
317.75	0.037208
318.00	0.036553
318.25	0.039675
318.50	0.039636
318.75	0.036572
319.00	0.032608
319.25	0.040921
319.50	0.030411
319.75	0.032133
320.00	0.036206
320.25	0.035820
320.50	0.032904
320.75	0.035769
321.00	0.030283
321.25	0.030797
321.50	0.033212
321.75	0.034548
322.00	0.031741
322.25	0.030880
322.50	0.029075
322.75	0.027951
323.00	0.029210
323.25	0.026197
323.50	0.029923
323.75	0.030174
324.00	0.027341
324.25	0.028163
324.50	0.027880
324.75	0.024598
325.00	0.024668
325.25	0.028073
325.50	0.025921
325.75	0.024212
326.00	0.023968
326.25	0.024675
326.50	0.023724
326.75	0.017737
327.00	0.022266
327.25	0.022497
327.50	0.018334
327.75	0.022940
328.00	0.020570
328.25	0.020685
328.50	0.018643
328.75	0.021983
329.00	0.019992
329.25	0.021521
329.50	0.020178
329.75	0.016927
330.00	0.013722
330.25	0.018521
330.50	0.017377
330.75	0.018636
331.00	0.018932
331.25	0.014846
331.50	0.018443
331.75	0.017775
332.00	0.018476
332.25	0.013535
332.50	0.020923
332.75	0.018129
333.00	0.017929
333.25	0.018623
333.50	0.017936
333.75	0.017204
334.00	0.017660
334.25	0.015328
334.50	0.017595
334.75	0.015970
335.00	0.015469
335.25	0.014589
335.50	0.014461
335.75	0.013735
336.00	0.014448
336.25	0.015636
336.50	0.015771
336.75	0.015219
337.00	0.014685
337.25	0.014204
337.50	0.015989
337.75	0.012373
338.00	0.013401
338.25	0.011923
338.50	0.013760
338.75	0.017994
339.00	0.017711
339.25	0.017037
339.50	0.016638
339.75	0.016176
340.00	0.012810
340.25	0.017743
340.50	0.013677
340.75	0.013002
341.00	0.015829
341.25	0.013818
341.50	0.010908
341.75	0.010047
342.00	0.013490
342.25	0.011242
342.50	0.013497
342.75	0.011403
343.00	0.015199
343.25	0.012045
343.50	0.013523
343.75	0.013137
344.00	0.015604
344.25	0.013908
344.50	0.012585
344.75	0.013407
345.00	0.010137
345.25	0.014024
345.50	0.015610
345.75	0.015572
346.00	0.015039
346.25	0.015000
346.50	0.015688
346.75	0.012308
347.00	0.016067
347.25	0.017390
347.50	0.011326
347.75	0.012437
348.00	0.014094
348.25	0.016992
348.50	0.014968
348.75	0.014236
349.00	0.013317
349.25	0.015610
349.50	0.011538
349.75	0.012932
350.00	0.015129
350.25	0.014974
350.50	0.015418
350.75	0.014178
351.00	0.015405
351.25	0.014486
351.50	0.016484
351.75	0.015135
352.00	0.013413
352.25	0.013760
352.50	0.015463
352.75	0.016812
353.00	0.015983
353.25	0.015745
353.50	0.015219
353.75	0.015996
354.00	0.017711
354.25	0.015649
354.50	0.016574
354.75	0.013760
355.00	0.014319
355.25	0.016034
355.50	0.017904
355.75	0.016028
356.00	0.018321
356.25	0.017923
356.50	0.017942
356.75	0.017197
357.00	0.017891
357.25	0.016735
357.50	0.017075
357.75	0.017750
358.00	0.015276
358.25	0.015925
358.50	0.016690
358.75	0.017454
359.00	0.016876
359.25	0.018071
359.50	0.018231
359.75	0.015109
360.00	0.016356
360.25	0.015546
360.50	0.016914
360.75	0.017017
361.00	0.016034
361.25	0.017178
361.50	0.014313
361.75	0.014114
362.00	0.015238
362.25	0.017820
362.50	0.013580
362.75	0.016985
363.00	0.015257
363.25	0.014255
363.50	0.016702
363.75	0.014377
364.00	0.015893
364.25	0.014403
364.50	0.012219
364.75	0.018302
365.00	0.016413
365.25	0.016214
365.50	0.013902
365.75	0.017506
366.00	0.016381
366.25	0.013747
366.50	0.015810
366.75	0.017583
367.00	0.018238
367.25	0.017448
367.50	0.015122
367.75	0.017371
368.00	0.018315
368.25	0.018373
368.50	0.018970
368.75	0.017705
369.00	0.019465
369.25	0.018938
369.50	0.017968
369.75	0.018411
370.00	0.018264
370.25	0.017737
370.50	0.020409
370.75	0.020550
371.00	0.017872
371.25	0.022548
371.50	0.022542
371.75	0.022246
372.00	0.019703
372.25	0.021989
372.50	0.021803
372.75	0.020885
373.00	0.022960
373.25	0.021167
373.50	0.022169
373.75	0.022632
374.00	0.025131
374.25	0.020454
374.50	0.020788
374.75	0.018186
375.00	0.019368
375.25	0.022972
375.50	0.019953
375.75	0.020409
376.00	0.018636
376.25	0.020024
376.50	0.019722
376.75	0.016735
377.00	0.019426
377.25	0.016754
377.50	0.018745
377.75	0.016780
378.00	0.019709
378.25	0.014326
378.50	0.017223
378.75	0.015636
379.00	0.015206
379.25	0.016253
379.50	0.015810
379.75	0.013799
380.00	0.014191
380.25	0.013356
380.50	0.014403
380.75	0.014114
381.00	0.014287
381.25	0.012540
381.50	0.012334
381.75	0.013311
382.00	0.013568
382.25	0.012880
382.50	0.012681
382.75	0.012257
383.00	0.010998
383.25	0.012090
383.50	0.013889
383.75	0.015186
384.00	0.012443
384.25	0.011717
384.50	0.011756
384.75	0.012893
385.00	0.012296
385.25	0.012186
385.50	0.011981
385.75	0.011897
386.00	0.010439
386.25	0.011281
386.50	0.010600
386.75	0.012238
387.00	0.012334
387.25	0.012161
387.50	0.013311
387.75	0.011473
388.00	0.012533
388.25	0.0099380
388.50	0.013099
388.75	0.012321
389.00	0.011255
389.25	0.013253
389.50	0.014306
389.75	0.011692
390.00	0.012328
390.25	0.011043
390.50	0.011242
390.75	0.013516
391.00	0.011069
391.25	0.012321
391.50	0.012437
391.75	0.012752
392.00	0.012308
392.25	0.013998
392.50	0.014750
392.75	0.014891
393.00	0.013863
393.25	0.014929
393.50	0.014242
393.75	0.013311
394.00	0.014011
394.25	0.013863
394.50	0.014570
394.75	0.013728
395.00	0.016446
395.25	0.016272
395.50	0.015752
395.75	0.015610
396.00	0.015514
396.25	0.015739
396.50	0.016709
396.75	0.014454
397.00	0.017377
397.25	0.016606
397.50	0.015328
397.75	0.017904
398.00	0.016914
398.25	0.016972
398.50	0.016176
398.75	0.017313
399.00	0.014538
399.25	0.016195
399.50	0.016940
399.75	0.016323
400.00	0.015803
400.25	0.016368
400.50	0.016728
400.75	0.016060
401.00	0.014692
401.25	0.014801
401.50	0.013458
401.75	0.013490
402.00	0.012360
402.25	0.012527
402.50	0.015039
402.75	0.014216
403.00	0.014493
403.25	0.012694
403.50	0.012199
403.75	0.014371
404.00	0.010478
404.25	0.011583
404.50	0.0082806
404.75	0.010966
405.00	0.010850
405.25	0.010375
405.50	0.012244
405.75	0.010420
406.00	0.010336
406.25	0.0089423
406.50	0.010278
406.75	0.010381
407.00	0.0085504
407.25	0.0079530
407.50	0.0080044
407.75	0.0078887
408.00	0.0085054
408.25	0.0069123
408.50	0.0085504
408.75	0.0091607
409.00	0.0080108
409.25	0.0086532
409.50	0.0075996
409.75	0.0068031
410.00	0.0081328
410.25	0.0069701
410.50	0.0058330
410.75	0.0054669
411.00	0.0042720
411.25	0.0059936
411.50	0.0050493
411.75	0.0053512
412.00	0.0056403
412.25	0.0053063
412.50	0.0044840
412.75	0.0058073
413.00	0.0044968
413.25	0.0060257
413.50	0.0062699
413.75	0.0048501
414.00	0.0061028
414.25	0.0067966
414.50	0.0048373
414.75	0.0035075
415.00	0.0050686
415.25	0.0045739
415.50	0.0027688
415.75	0.0031735
416.00	0.0035782
416.25	0.0046895
416.50	0.0029743
416.75	0.0057174
417.00	0.0037195
417.25	0.0048887
417.50	0.0036489
417.75	0.0031992
418.00	0.0030964
418.25	0.0047152
418.50	0.0063020
418.75	0.0042977
419.00	0.0050172
419.25	0.0037067
419.50	0.0048437
419.75	0.0026467
420.00	0.0034304
420.25	0.0026981
420.50	0.0048245
420.75	0.0036232
421.00	0.0039893
421.25	0.0033469
421.50	0.0045289
421.75	0.0042913
422.00	0.0047731
422.25	0.0043812
422.50	0.0027495
422.75	0.0044519
423.00	0.0045611
423.25	0.0037581
423.50	0.0051906
423.75	0.0038737
424.00	0.0055953
424.25	0.0045803
424.50	0.0040664
424.75	0.0032313
425.00	0.0035461
425.25	0.0037195
425.50	0.0043234
425.75	0.0048245
426.00	0.0045225
426.25	0.0048245
426.50	0.0036167
426.75	0.0030000
427.00	0.0038608
427.25	0.0025632
427.50	0.0041050
427.75	0.0034754
428.00	0.0045675
428.25	0.0024090
428.50	0.0035396
428.75	0.0051842
429.00	0.0027495
429.25	0.0031606
429.50	0.0016895
429.75	0.0029872
430.00	0.0015482
430.25	0.0043555
430.50	0.0021970
430.75	0.0053127
431.00	0.0031799
431.25	0.0042334
431.50	0.0030257
431.75	0.0029743
432.00	0.0034754
432.25	0.0029936
432.50	0.0024283
432.75	0.0033277
433.00	0.0029422
433.25	0.0035268
433.50	0.0047409
433.75	0.0026082
434.00	0.0027688
434.25	0.0037709
434.50	0.0025503
434.75	0.0021199
435.00	0.0025311
435.25	0.0015418
435.50	0.0047731
435.75	0.0024668
436.00	0.0035268
436.25	0.0015932
436.50	0.0037838
436.75	0.0016574
437.00	0.0033790
437.25	0.0021135
437.50	0.0038994
437.75	0.0025696
438.00	0.0022613
438.25	0.0022613
438.50	0.0024347
438.75	0.0025632
439.00	0.0017216
439.25	0.0025503
439.50	0.0022677
439.75	0.0022613
440.00	0.0017538
440.25	0.0022934
440.50	0.0042527
440.75	0.0017281
441.00	0.0032056
441.25	0.0028394
441.50	0.00072592
441.75	0.0012912
442.00	0.0031028
442.25	0.0018373
442.50	0.0011114
442.75	0.0026146
443.00	0.0026981
443.25	0.0037838
443.50	0.0017216
443.75	0.0015161
444.00	0.0016446
444.25	0.0018244
444.50	0.0025439
444.75	0.0039893
445.00	0.0018630
445.25	0.0029936
445.50	0.0016060
445.75	0.0015032
446.00	0.0030450
446.25	0.0025311
446.50	0.0010407
446.75	0.0017602
447.00	0.0012077
447.25	0.0030643
447.50	0.0029743
447.75	0.0025118
448.00	0.0023191
448.25	0.0019529
448.50	0.0025246
448.75	0.0020428
449.00	0.0036167
449.25	0.0022099
449.50	0.0023255
449.75	0.0012909
450.00	0.0023705
450.25	0.0014840
450.50	0.0016253
450.75	0.0025568
451.00	0.0033469
451.25	0.0023255
451.50	0.0016189
451.75	0.0016767
452.00	0.00097645
452.25	0.0029358
452.50	0.0023705
452.75	0.0012591
453.00	0.0026467
453.25	0.0036039
453.50	0.0015225
453.75	0.0026082
454.00	0.0027109
454.25	0.0024283
454.50	0.0016702
454.75	0.0019613
455.00	0.0032634
455.25	0.0024861
455.50	0.0034369
455.75	0.0019208
456.00	0.0019079
456.25	0.0018180
456.50	0.0024219
456.75	0.0025054
457.00	0.0018116
457.25	0.0014518
457.50	0.0021521
457.75	0.0021328
458.00	0.0013619
458.25	0.0014004
458.50	0.0017409
458.75	0.0024733
459.00	0.0015546
459.25	0.0016638
459.50	0.0012013
459.75	0.0024347
460.00	0.0025054
460.25	0.0010407
460.50	0.0029936
460.75	0.0023897
461.00	0.0030643
461.25	0.0018758
461.50	0.0028266
461.75	0.0023383
462.00	0.0021585
462.25	0.0014518
462.50	0.0024411
462.75	0.0017345
463.00	0.0029872
463.25	0.0019786
463.50	0.0018694
463.75	0.0032891
464.00	0.0020814
464.25	0.0024090
464.50	0.0023705
464.75	0.0012077
465.00	0.0014775
465.25	0.0030578
465.50	0.0033469
465.75	0.0012977
466.00	0.0012720
466.25	0.00099573
466.50	0.0016317
466.75	0.0026339
467.00	0.0020493
467.25	0.0024540
467.50	0.0027431
467.75	0.0040086
468.00	0.0023255
468.25	0.0032249
468.50	0.0033341
468.75	0.0022548
469.00	0.0022291
469.25	0.0021842
469.50	0.0022420
469.75	0.0020428
470.00	0.0016189
470.25	0.0025118
470.50	0.0029229
470.75	0.0023255
471.00	0.0013619
471.25	0.00071300
471.50	0.0014197
471.75	0.0027816
472.00	0.0019208
472.25	0.0025118
472.50	0.0031092
472.75	0.0024347
473.00	0.0024797
473.25	0.0019336
473.50	0.0022548
473.75	0.0012077
474.00	0.0039958
474.25	0.0016317
474.50	0.0030064
474.75	0.0035653
475.00	0.0027109
475.25	0.0025118
475.50	0.0019979
475.75	0.0012784
476.00	0.0015353
476.25	0.0039701
476.50	0.0026146
476.75	0.0025889
477.00	0.0031414
477.25	0.0041756
477.50	0.0027688
477.75	0.0023062
478.00	0.0013747
478.25	0.0026917
478.50	0.0022163
478.75	0.0031221
479.00	0.0023191
479.25	0.0038544
479.50	0.0028972
479.75	0.0010857
480.00	0.0027559
480.25	0.0023383
480.50	0.0016702
480.75	0.0028458
481.00	0.0032763
481.25	0.0020107
481.50	0.0036039
481.75	0.0016959
482.00	0.0028137
482.25	0.0019208
482.50	0.00073234
482.75	0.0031414
483.00	0.0036489
483.25	0.0020685
483.50	0.0039444
483.75	0.0019015
484.00	0.0036681
484.25	0.0014711
484.50	0.0029165
484.75	0.0023062
485.00	0.0049851
485.25	0.0027495
485.50	0.0031349
485.75	0.0027366
486.00	0.0031542
486.25	0.0032955
486.50	0.0032184
486.75	0.0029037
487.00	0.0022034
487.25	0.0027174
487.50	0.0022548
487.75	0.0026467
488.00	0.0026017
488.25	0.0027302
488.50	0.0039315
488.75	0.0018180
489.00	0.0032056
489.25	0.0021906
489.50	0.0023383
489.75	0.0028394
490.00	0.0027366
490.25	0.0025182
490.50	0.0039829
490.75	0.0025632
491.00	0.0033855
491.25	0.0034754
491.50	0.0031735
491.75	0.0023512
492.00	0.0039572
492.25	0.0037259
492.50	0.0024476
492.75	0.0026274
493.00	0.0030514
493.25	0.0022548
493.50	0.0040343
493.75	0.0025825
494.00	0.0013683
494.25	0.0010600
494.50	0.0033919
494.75	0.0035846
495.00	0.0026788
495.25	0.0028908
495.50	0.0032763
495.75	0.0025953
496.00	0.0042334
496.25	0.0038480
496.50	0.0031478
496.75	0.0024540
497.00	0.0018116
497.25	0.0020814
497.50	0.0023962
497.75	0.0050364
498.00	0.0022034
498.25	0.0043876
498.50	0.0030129
498.75	0.0025246
499.00	0.0029486
499.25	0.0031992
499.50	0.0027623
499.75	0.0027302
500.00	0.0019465
500.25	0.0033855
500.50	0.0025182
500.75	0.0028844
501.00	0.0021392
501.25	0.0041050
501.50	0.0021970
501.75	0.0023062
502.00	0.0041371
502.25	0.0021970
502.50	0.0035910
502.75	0.0023383
503.00	0.0020300
503.25	0.0028202
503.50	0.0033662
503.75	0.0029872
504.00	0.0016189
504.25	0.0029229
504.50	0.0035782
504.75	0.0039572
505.00	0.0035910
505.25	0.0012141
505.50	0.0017923
505.75	0.0022484
506.00	0.0027623
506.25	0.0023191
506.50	0.0018694
506.75	0.0023833
507.00	0.0024476
507.25	0.0019015
507.50	0.0028330
507.75	0.0022998
508.00	0.0019401
508.25	0.0013169
508.50	0.0011499
508.75	0.0021071
509.00	0.0022998
509.25	0.0032634
509.50	0.0018758
509.75	0.0038544
510.00	0.0030257
510.25	0.0031349
510.50	0.0028009
510.75	0.0020107
511.00	0.0025889
511.25	0.0021328
511.50	0.0022227
511.75	0.0037195
512.00	0.0028651
512.25	0.0037131
512.50	0.0025825
512.75	0.0021199
513.00	0.00091221
513.25	0.0038673
513.50	0.0039444
513.75	0.0037388
514.00	0.0021842
514.25	0.0021392
514.50	0.0039444
514.75	0.0034304
515.00	0.0019850
515.25	0.0032763
515.50	0.0031671
515.75	0.0042399
516.00	0.0024540
516.25	0.0028587
516.50	0.0022420
516.75	0.0035011
517.00	0.0035718
517.25	0.0041564
517.50	0.0027495
517.75	0.0035396
518.00	0.0033341
518.25	0.0016446
518.50	0.0035075
518.75	0.0035204
519.00	0.0049722
519.25	0.0021713
519.50	0.0033983
519.75	0.0026210
520.00	0.0046703
520.25	0.0011949
520.50	0.0038737
520.75	0.0023705
521.00	0.0023640
521.25	0.0027495
521.50	0.0037516
521.75	0.0044069
522.00	0.0049015
522.25	0.0047602
522.50	0.0037645
522.75	0.0031157
523.00	0.0021264
523.25	0.0031927
523.50	0.0019015
523.75	0.0025953
524.00	0.0038352
524.25	0.0028458
524.50	0.0035268
524.75	0.0026403
525.00	0.0029743
525.25	0.0026467
525.50	0.0046446
525.75	0.0023897
526.00	0.0027174
526.25	0.0034047
526.50	0.0036810
526.75	0.0031735
527.00	0.0051200
527.25	0.0025439
527.50	0.0035461
527.75	0.0035653
528.00	0.0056275
528.25	0.0029551
528.50	0.0046831
528.75	0.0020557
529.00	0.0044326
529.25	0.0026017
529.50	0.0030835
529.75	0.0045418
530.00	0.0042720
530.25	0.0042142
530.50	0.0033405
530.75	0.0036617
531.00	0.0046831
531.25	0.0050750
531.50	0.0029679
531.75	0.0031478
532.00	0.0028587
532.25	0.0045097
532.50	0.0038159
532.75	0.0033598
533.00	0.0027945
533.25	0.0038287
533.50	0.0029743
533.75	0.0046510
534.00	0.0032056
534.25	0.0032506
534.50	0.0060900
534.75	0.0034626
535.00	0.0040150
535.25	0.0036489
535.50	0.0038865
535.75	0.0044904
536.00	0.0050621
536.25	0.0029872
536.50	0.0027045
536.75	0.0063084
537.00	0.0048887
537.25	0.0031285
537.50	0.0044519
537.75	0.0065911
538.00	0.0058330
538.25	0.0058009
538.50	0.0041564
538.75	0.0038994
539.00	0.0049337
539.25	0.0056596
539.50	0.0039187
539.75	0.0048309
540.00	0.0044390
540.25	0.0049401
540.50	0.0044840
540.75	0.0056275
541.00	0.0040022
541.25	0.0044519
541.50	0.0063726
541.75	0.0051328
542.00	0.0054926
542.25	0.0052484
542.50	0.0048116
542.75	0.0044647
543.00	0.0048116
543.25	0.0052806
543.50	0.0062634
543.75	0.0035975
544.00	0.0051135
544.25	0.0064947
544.50	0.0059101
544.75	0.0068994
545.00	0.0065332
545.25	0.0050686
545.50	0.0065204
545.75	0.0059037
546.00	0.0053448
546.25	0.0042013
546.50	0.0056724
546.75	0.0066489
547.00	0.0053448
547.25	0.0066617
547.50	0.0057559
547.75	0.0062249
548.00	0.0064176
548.25	0.0073619
548.50	0.0065268
548.75	0.0067581
549.00	0.0063405
549.25	0.0064240
549.50	0.0057174
549.75	0.0063598
550.00	0.0076382
550.25	0.0067709
550.50	0.0082999
550.75	0.0075097
551.00	0.0071500
551.25	0.0068609
551.50	0.0074519
551.75	0.0068737
552.00	0.0047345
552.25	0.0074712
552.50	0.0071307
552.75	0.0074390
553.00	0.0055889
553.25	0.0060322
553.50	0.0067195
553.75	0.0084797
554.00	0.0081714
554.25	0.0052292
554.50	0.0059165
554.75	0.0068673
555.00	0.0078630
555.25	0.0084219
555.50	0.0072656
555.75	0.0080300
556.00	0.0078694
556.25	0.0071178
556.50	0.010587
556.75	0.0074326
557.00	0.0089423
557.25	0.0058908
557.50	0.0090900
557.75	0.0075033
558.00	0.0070472
558.25	0.0081007
558.50	0.0095525
558.75	0.0091928
559.00	0.0076832
559.25	0.0067645
559.50	0.0067581
559.75	0.0098545
560.00	0.0085440
560.25	0.0096361
560.50	0.0089872
560.75	0.0079465
561.00	0.010561
561.25	0.0096874
561.50	0.0093470
561.75	0.0091414
562.00	0.0093084
562.25	0.0090258
562.50	0.010304
562.75	0.011332
563.00	0.0086789
563.25	0.0093084
563.50	0.0095782
563.75	0.0099059
564.00	0.010407
564.25	0.010356
564.50	0.010484
564.75	0.010657
565.00	0.010690
565.25	0.0090964
565.50	0.0088909
565.75	0.010722
566.00	0.010388
566.25	0.010869
566.50	0.011929
566.75	0.0094048
567.00	0.012064
567.25	0.010413
567.50	0.012585
567.75	0.011846
568.00	0.011242
568.25	0.010786
568.50	0.012257
568.75	0.011717
569.00	0.010722
569.25	0.011152
569.50	0.011178
569.75	0.011602
570.00	0.012533
570.25	0.011949
570.50	0.013407
570.75	0.011557
571.00	0.014486
571.25	0.013555
571.50	0.013535
571.75	0.013156
572.00	0.014043
572.25	0.011910
572.50	0.014293
572.75	0.013433
573.00	0.013343
573.25	0.013773
573.50	0.015758
573.75	0.015591
574.00	0.014628
574.25	0.015077
574.50	0.012977
574.75	0.015084
575.00	0.015469
575.25	0.015925
575.50	0.016298
575.75	0.015720
576.00	0.016279
576.25	0.014563
576.50	0.015842
576.75	0.016921
577.00	0.016516
577.25	0.015231
577.50	0.017139
577.75	0.015726
578.00	0.017512
578.25	0.016902
578.50	0.017049
578.75	0.017878
579.00	0.017390
579.25	0.016253
579.50	0.017191
579.75	0.017833
580.00	0.019921
580.25	0.017088
580.50	0.017717
580.75	0.019446
581.00	0.019201
581.25	0.018816
581.50	0.018649
581.75	0.019683
582.00	0.020242
582.25	0.020737
582.50	0.019767
582.75	0.020165
583.00	0.020306
583.25	0.021116
583.50	0.021341
583.75	0.020030
584.00	0.021540
584.25	0.021264
584.50	0.022638
584.75	0.023216
585.00	0.021212
585.25	0.022349
585.50	0.023088
585.75	0.022253
586.00	0.022388
586.25	0.023518
586.50	0.022767
586.75	0.021861
587.00	0.024219
587.25	0.025201
587.50	0.024752
587.75	0.024199
588.00	0.025709
588.25	0.024566
588.50	0.023236
588.75	0.025131
589.00	0.024874
589.25	0.025992
589.50	0.025568
589.75	0.024623
590.00	0.026750
590.25	0.026082
590.50	0.027097
590.75	0.027482
591.00	0.026955
591.25	0.027553
591.50	0.026769
591.75	0.027996
592.00	0.028433
592.25	0.028876
592.50	0.028793
592.75	0.027713
593.00	0.029075
593.25	0.029885
593.50	0.030116
593.75	0.029608
594.00	0.030688
594.25	0.030418
594.50	0.030064
594.75	0.029853
595.00	0.031536
595.25	0.031548
595.50	0.032647
595.75	0.031645
596.00	0.031118
596.25	0.031561
596.50	0.032763
596.75	0.031671
597.00	0.030797
597.25	0.032499
597.50	0.034060
597.75	0.033874
598.00	0.033765
598.25	0.033450
598.50	0.033790
598.75	0.033957
599.00	0.034773
599.25	0.035005
599.50	0.033951
599.75	0.034979
600.00	0.034895
600.25	0.033803
600.50	0.034433
600.75	0.034825
601.00	0.035673
601.25	0.036000
601.50	0.036534
601.75	0.036771
602.00	0.036534
602.25	0.037992
602.50	0.037086
602.75	0.036733
603.00	0.037626
603.25	0.037985
603.50	0.038570
603.75	0.038981
604.00	0.038820
604.25	0.038968
604.50	0.039277
604.75	0.038037
605.00	0.037844
605.25	0.039900
605.50	0.040022
605.75	0.041384
606.00	0.039784
606.25	0.041024
606.50	0.040844
606.75	0.041377
607.00	0.039212
607.25	0.040516
607.50	0.043176
607.75	0.042379
608.00	0.042077
608.25	0.041307
608.50	0.044056
608.75	0.043401
609.00	0.044069
609.25	0.044602
609.50	0.043979
609.75	0.044705
610.00	0.044557
610.25	0.044242
610.50	0.043504
610.75	0.046581
611.00	0.045116
611.25	0.046182
611.50	0.046420
611.75	0.048527
612.00	0.048251
612.25	0.049292
612.50	0.046928
612.75	0.047718
613.00	0.047923
613.25	0.050172
613.50	0.049433
613.75	0.049375
614.00	0.050975
614.25	0.050384
614.50	0.051527
614.75	0.051733
615.00	0.052112
615.25	0.052337
615.50	0.052311
615.75	0.053030
616.00	0.052773
616.25	0.054071
616.50	0.055182
616.75	0.056878
617.00	0.054675
617.25	0.055253
617.50	0.058581
617.75	0.058921
618.00	0.057405
618.25	0.057938
618.50	0.058896
618.75	0.059557
619.00	0.060823
619.25	0.060829
619.50	0.060945
619.75	0.063174
620.00	0.064253
620.25	0.064844
620.50	0.063669
620.75	0.064375
621.00	0.065281
621.25	0.066913
621.50	0.068198
621.75	0.066881
622.00	0.068846
622.25	0.069675
622.50	0.069078
622.75	0.069180
623.00	0.071705
623.25	0.073452
623.50	0.072900
623.75	0.073266
624.00	0.074358
624.25	0.076761
624.50	0.077384
624.75	0.076979
625.00	0.076684
625.25	0.080230
625.50	0.080847
625.75	0.081155
626.00	0.081849
626.25	0.082600
626.50	0.084213
626.75	0.085928
627.00	0.088710
627.25	0.086352
627.50	0.089654
627.75	0.089757
628.00	0.090560
628.25	0.092050
628.50	0.091922
628.75	0.095140
629.00	0.095699
629.25	0.097221
629.50	0.095872
629.75	0.099110
630.00	0.10043
630.25	0.10124
630.50	0.10272
630.75	0.10352
631.00	0.10363
631.25	0.10733
631.50	0.10499
631.75	0.10893
632.00	0.11055
632.25	0.11246
632.50	0.11354
632.75	0.11238
633.00	0.11568
633.25	0.11582
633.50	0.11720
633.75	0.11940
634.00	0.11813
634.25	0.12198
634.50	0.12550
634.75	0.12649
635.00	0.12887
635.25	0.12805
635.50	0.13102
635.75	0.13247
636.00	0.13470
636.25	0.13427
636.50	0.13699
636.75	0.13784
637.00	0.13909
637.25	0.14000
637.50	0.14250
637.75	0.14411
638.00	0.14500
638.25	0.14545
638.50	0.14799
638.75	0.14923
639.00	0.15073
639.25	0.15160
639.50	0.15156
639.75	0.15581
640.00	0.15810
640.25	0.15834
640.50	0.16070
640.75	0.16067
641.00	0.16190
641.25	0.16344
641.50	0.16502
641.75	0.16587
642.00	0.16907
642.25	0.17011
642.50	0.16974
642.75	0.17162
643.00	0.17213
643.25	0.17530
643.50	0.17576
643.75	0.17658
644.00	0.17674
644.25	0.18009
644.50	0.18026
644.75	0.18134
645.00	0.18198
645.25	0.18358
645.50	0.18484
645.75	0.18522
646.00	0.18742
646.25	0.18779
646.50	0.18997
646.75	0.19131
647.00	0.19151
647.25	0.19115
647.50	0.19197
647.75	0.19255
648.00	0.19482
648.25	0.19444
648.50	0.19593
648.75	0.19665
649.00	0.19747
649.25	0.19686
649.50	0.19683
649.75	0.19790
650.00	0.19906
650.25	0.19842
650.50	0.19674
650.75	0.19976
651.00	0.19850
651.25	0.20130
651.50	0.20003
651.75	0.19808
652.00	0.20006
652.25	0.20047
652.50	0.20028
652.75	0.20053
653.00	0.19959
653.25	0.20087
653.50	0.19984
653.75	0.20008
654.00	0.19917
654.25	0.19977
654.50	0.20048
654.75	0.19873
655.00	0.19866
655.25	0.19814
655.50	0.19911
655.75	0.19883
656.00	0.19771
656.25	0.19773
656.50	0.19798
656.75	0.19837
657.00	0.19832
657.25	0.19496
657.50	0.19498
657.75	0.19503
658.00	0.19604
658.25	0.19353
658.50	0.19517
658.75	0.19499
659.00	0.19460
659.25	0.19294
659.50	0.19282
659.75	0.19350
660.00	0.19275
660.25	0.19331
660.50	0.19307
660.75	0.19287
661.00	0.19172
661.25	0.19240
661.50	0.19097
661.75	0.18837
662.00	0.19074
662.25	0.19170
662.50	0.19031
662.75	0.19137
663.00	0.19094
663.25	0.19092
663.50	0.19103
663.75	0.19075
664.00	0.19015
664.25	0.19049
664.50	0.19091
664.75	0.19027
665.00	0.19176
665.25	0.19149
665.50	0.19162
665.75	0.19242
666.00	0.19163
666.25	0.19173
666.50	0.19187
666.75	0.19223
667.00	0.19332
667.25	0.19204
667.50	0.19345
667.75	0.19394
668.00	0.19475
668.25	0.19613
668.50	0.19687
668.75	0.19681
669.00	0.19776
669.25	0.19938
669.50	0.19833
669.75	0.19849
670.00	0.19952
670.25	0.20221
670.50	0.20279
670.75	0.20219
671.00	0.20383
671.25	0.20527
671.50	0.20701
671.75	0.20876
672.00	0.20897
672.25	0.20954
672.50	0.21090
672.75	0.21269
673.00	0.21328
673.25	0.21452
673.50	0.21627
673.75	0.21738
674.00	0.22058
674.25	0.21967
674.50	0.22191
674.75	0.22503
675.00	0.22864
675.25	0.23021
675.50	0.23128
675.75	0.23385
676.00	0.23561
676.25	0.23755
676.50	0.24025
676.75	0.24170
677.00	0.24530
677.25	0.24753
677.50	0.24908
677.75	0.24973
678.00	0.25439
678.25	0.25549
678.50	0.25922
678.75	0.26083
679.00	0.26345
679.25	0.26648
679.50	0.26963
679.75	0.27183
680.00	0.27487
680.25	0.27641
680.50	0.28108
680.75	0.28333
681.00	0.28583
681.25	0.28950
681.50	0.29296
681.75	0.29648
682.00	0.29818
682.25	0.30172
682.50	0.30413
682.75	0.30735
683.00	0.31060
683.25	0.31286
683.50	0.31859
683.75	0.32093
684.00	0.32599
684.25	0.32772
684.50	0.33407
684.75	0.33599
685.00	0.33980
685.25	0.34533
685.50	0.34849
685.75	0.35314
686.00	0.35711
686.25	0.35994
686.50	0.36597
686.75	0.36837
687.00	0.37508
687.25	0.38028
687.50	0.38314
687.75	0.38799
688.00	0.39143
688.25	0.39656
688.50	0.40383
688.75	0.40686
689.00	0.41364
689.25	0.41797
689.50	0.42428
689.75	0.42824
690.00	0.43304
690.25	0.43957
690.50	0.44461
690.75	0.45058
691.00	0.45649
691.25	0.46378
691.50	0.46880
691.75	0.47598
692.00	0.48187
692.25	0.48864
692.50	0.49442
692.75	0.50386
693.00	0.50835
693.25	0.51266
693.50	0.51849
693.75	0.52506
694.00	0.53051
694.25	0.53698
694.50	0.54183
694.75	0.55003
695.00	0.55860
695.25	0.56638
695.50	0.57274
695.75	0.57982
696.00	0.58826
696.25	0.59637
696.50	0.60495
696.75	0.61239
697.00	0.62341
697.25	0.63347
697.50	0.64009
697.75	0.65035
698.00	0.65785
698.25	0.66758
698.50	0.67624
698.75	0.68598
699.00	0.69624
699.25	0.70438
699.50	0.71630
699.75	0.72577
700.00	0.73330
700.25	0.74450
700.50	0.75500
700.75	0.76677
701.00	0.77175
701.25	0.78263
701.50	0.79330
701.75	0.80332
702.00	0.81429
702.25	0.81813
702.50	0.83419
702.75	0.83739
703.00	0.85018
703.25	0.86032
703.50	0.87027
703.75	0.87687
704.00	0.88446
704.25	0.89379
704.50	0.89954
704.75	0.91088
705.00	0.91864
705.25	0.92430
705.50	0.93312
705.75	0.93918
706.00	0.94639
706.25	0.95156
706.50	0.95613
706.75	0.96483
707.00	0.96911
707.25	0.97572
707.50	0.97920
707.75	0.98331
708.00	0.98203
708.25	0.99099
708.50	0.99012
708.75	0.99271
709.00	0.99472
709.25	0.99398
709.50	1.00000
709.75	0.99884
710.00	0.99690
710.25	0.99540
710.50	0.99562
710.75	0.98996
711.00	0.98876
711.25	0.98401
711.50	0.98067
711.75	0.97998
712.00	0.97264
712.25	0.96969
712.50	0.96088
712.75	0.95744
713.00	0.94811
713.25	0.94083
713.50	0.93506
713.75	0.92827
714.00	0.92010
714.25	0.91074
714.50	0.89783
714.75	0.88363
715.00	0.87240
715.25	0.85935
715.50	0.84579
715.75	0.83547
716.00	0.82117
716.25	0.81095
716.50	0.79819
716.75	0.78427
717.00	0.77433
717.25	0.76469
717.50	0.74632
717.75	0.73566
718.00	0.72234
718.25	0.70807
718.50	0.69587
718.75	0.68400
719.00	0.66998
719.25	0.65543
719.50	0.64310
719.75	0.63183
720.00	0.61480
720.25	0.60190
720.50	0.58847
720.75	0.57494
721.00	0.56304
721.25	0.54809
721.50	0.53577
721.75	0.52306
722.00	0.51202
722.25	0.49644
722.50	0.48400
722.75	0.47298
723.00	0.46180
723.25	0.45173
723.50	0.43487
723.75	0.42410
724.00	0.41233
724.25	0.40148
724.50	0.39093
724.75	0.37866
725.00	0.36709
725.25	0.35742
725.50	0.34618
725.75	0.33505
726.00	0.32493
726.25	0.31748
726.50	0.30709
726.75	0.29618
727.00	0.28779
727.25	0.27912
727.50	0.26881
727.75	0.26115
728.00	0.25214
728.25	0.24442
728.50	0.23629
728.75	0.22710
729.00	0.22138
729.25	0.21208
729.50	0.20521
729.75	0.19971
730.00	0.19322
730.25	0.18578
730.50	0.17985
730.75	0.17461
731.00	0.16966
731.25	0.16042
731.50	0.15551
731.75	0.15007
732.00	0.14544
732.25	0.14116
732.50	0.13426
732.75	0.13112
733.00	0.12725
733.25	0.12335
733.50	0.12059
733.75	0.11732
734.00	0.11430
734.25	0.11220
734.50	0.10752
734.75	0.10083
735.00	0.098782
735.25	0.095506
735.50	0.091600
735.75	0.088787
736.00	0.085735
736.25	0.083185
736.50	0.079555
736.75	0.077467
737.00	0.074043
737.25	0.072219
737.50	0.070671
737.75	0.067664
738.00	0.064189
738.25	0.061838
738.50	0.060335
738.75	0.061080
739.00	0.057315
739.25	0.054013
739.50	0.052504
739.75	0.051405
740.00	0.049818
740.25	0.047313
740.50	0.045990
740.75	0.044416
741.00	0.042720
741.25	0.043600
741.50	0.039945
741.75	0.039476
742.00	0.037857
742.25	0.037420
742.50	0.033604
742.75	0.032981
743.00	0.034105
743.25	0.033778
743.50	0.032551
743.75	0.031189
744.00	0.029435
744.25	0.030103
744.50	0.027957
744.75	0.027187
745.00	0.026653
745.25	0.024867
745.50	0.023422
745.75	0.023056
746.00	0.023069
746.25	0.023647
746.50	0.024418
746.75	0.022401
747.00	0.021912
747.25	0.019625
747.50	0.019670
747.75	0.019927
748.00	0.016253
748.25	0.017538
748.50	0.017968
748.75	0.017730
749.00	0.017461
749.25	0.015341
749.50	0.015944
749.75	0.016497
750.00	0.013375
750.25	0.014570
750.50	0.014673
750.75	0.014293
751.00	0.013690
751.25	0.012957
751.50	0.012180
751.75	0.013060
752.00	0.011872
752.25	0.011750
752.50	0.011011
752.75	0.012039
753.00	0.011788
753.25	0.010940
753.50	0.011884
753.75	0.010471
754.00	0.0098609
754.25	0.0086146
754.50	0.0095782
754.75	0.0094112
755.00	0.0083448
755.25	0.0082934
755.50	0.0095076
755.75	0.0089808
756.00	0.0073170
756.25	0.0074390
756.50	0.0081650
756.75	0.0073555
757.00	0.0069058
757.25	0.0074326
757.50	0.0071307
757.75	0.0070921
758.00	0.0059037
758.25	0.0065011
758.50	0.0054604
758.75	0.0073106
759.00	0.0068031
759.25	0.0067452
759.50	0.0070857
759.75	0.0045803
760.00	0.0070472
760.25	0.0051585
760.50	0.0057816
760.75	0.0043105
761.00	0.0044005
761.25	0.0053641
761.50	0.0042977
761.75	0.0058330
762.00	0.0056853
762.25	0.0048566
762.50	0.0044840
762.75	0.0049915
763.00	0.0065397
763.25	0.0041307
763.50	0.0045289
763.75	0.0044262
764.00	0.0036681
764.25	0.0055311
764.50	0.0045932
764.75	0.0053384
765.00	0.0029422
765.25	0.0047666
765.50	0.0049208
765.75	0.0025182
766.00	0.0031799
766.25	0.0031028
766.50	0.0039765
766.75	0.0032634
767.00	0.0031285
767.25	0.0032698
767.50	0.0031671
767.75	0.0043362
768.00	0.0038865
768.25	0.0027495
768.50	0.0034754
768.75	0.0027945
769.00	0.0028137
769.25	0.0029808
769.50	0.0036617
769.75	0.0040921
770.00	0.0030257
770.25	0.0027945
770.50	0.0033855
770.75	0.0020043
771.00	0.0035525
771.25	0.0055632
771.50	0.0037452
771.75	0.0042399
772.00	0.0053063
772.25	0.0020493
772.50	0.0036039
772.75	0.0033533
773.00	0.0028009
773.25	0.0044519
773.50	0.0037259
773.75	0.0034818
774.00	0.0018694
774.25	0.0033020
774.50	0.0024861
774.75	0.0024090
775.00	0.0036489
775.25	0.0029936
775.50	0.0033533
775.75	0.0021970
776.00	0.0026146
776.25	0.0027174
776.50	0.00091221
776.75	0.0023191
777.00	0.0046703
777.25	0.0034433
777.50	0.0027109
777.75	0.0016702
778.00	0.0022356
778.25	0.0045161
778.50	0.0011628
778.75	0.0024347
779.00	0.0030578
779.25	0.0027688
779.50	0.0039508
779.75	0.0021135
780.00	0.0036938
780.25	0.0023319
780.50	0.0017795
780.75	0.0011371
781.00	0.0032634
781.25	0.0015418
781.50	0.0029422
781.75	0.0022870
782.00	0.0021007
782.25	0.0020107
782.50	0.0024026
782.75	0.0023255
783.00	0.00068994
783.25	0.0020814
783.50	0.0023448
783.75	0.0024090
784.00	0.0033726
784.25	0.0016317
784.50	0.00092506
784.75	0.0026146
785.00	0.0014775
785.25	0.0017216
785.50	0.0025568
785.75	0.0016253
786.00	0.0024411
786.25	0.0021649
786.50	0.0013683
786.75	0.0011306
787.00	0.0011884
787.25	0.0027366
787.50	0.0013105
787.75	0.0024090
788.00	0.0017730
788.25	0.0013234
788.50	0.0029229
788.75	0.0028202
789.00	0.00073876
789.25	0.0027945
789.50	0.0012892
789.75	0.0014968
790.00	0.0025632
790.25	0.0014454
790.50	0.0013876
790.75	0.00068801
791.00	0.0035782
791.25	0.0029743
791.50	0.0020814
791.75	0.0034112
792.00	0.0015353
792.25	0.0014968
792.50	0.00080943
792.75	0.0024476
793.00	0.0021970
793.25	0.00067966
793.50	0.0017666
793.75	0.0014197
794.00	0.0034047
794.25	0.0016574
794.50	0.0018180
794.75	0.0016060
795.00	0.0014390
795.25	0.0032313
795.50	0.0022227
795.75	0.00066810
796.00	0.0024347
796.25	0.0017281
796.50	0.00068352
796.75	0.0015418
797.00	0.0026274
797.25	0.0019529
797.50	0.00070600
797.75	0.0028073
798.00	0.0012334
798.25	0.00077088
798.50	0.0021842
798.75	0.0017024
799.00	0.0017281
799.25	0.0020621
799.50	0.0022420
799.75	0.0010086
800.00	0.0017730
