Wavelength (nm)	K07 abs N 
220.00	0.10294
220.25	0.13113
220.50	0.13302
220.75	0.12932
221.00	0.13160
221.25	0.13116
221.50	0.12843
221.75	0.13077
222.00	0.12939
222.25	0.13079
222.50	0.13204
222.75	0.13001
223.00	0.12910
223.25	0.12648
223.50	0.12806
223.75	0.12746
224.00	0.12406
224.25	0.12590
224.50	0.12379
224.75	0.12418
225.00	0.12176
225.25	0.11957
225.50	0.11909
225.75	0.11728
226.00	0.11605
226.25	0.11510
226.50	0.11471
226.75	0.11373
227.00	0.11193
227.25	0.10917
227.50	0.10843
227.75	0.10410
228.00	0.10346
228.25	0.10150
228.50	0.10012
228.75	0.097743
229.00	0.094642
229.25	0.090165
229.50	0.089089
229.75	0.086174
230.00	0.083192
230.25	0.082490
230.50	0.079859
230.75	0.075906
231.00	0.073888
231.25	0.073746
231.50	0.071683
231.75	0.068216
232.00	0.066482
232.25	0.067528
232.50	0.064076
232.75	0.062992
233.00	0.060997
233.25	0.059061
233.50	0.059061
233.75	0.058799
234.00	0.057342
234.25	0.057200
234.50	0.056146
234.75	0.053441
235.00	0.053463
235.25	0.050982
235.50	0.051700
235.75	0.051976
236.00	0.052320
236.25	0.051812
236.50	0.050616
236.75	0.050227
237.00	0.051744
237.25	0.051901
237.50	0.050825
237.75	0.052596
238.00	0.051378
238.25	0.050093
238.50	0.049308
238.75	0.050691
239.00	0.049615
239.25	0.050661
239.50	0.050773
239.75	0.050937
240.00	0.052290
240.25	0.049899
240.50	0.049532
240.75	0.051461
241.00	0.051132
241.25	0.052357
241.50	0.053882
241.75	0.054637
242.00	0.053904
242.25	0.053837
242.50	0.057611
242.75	0.057058
243.00	0.058306
243.25	0.058515
243.50	0.058822
243.75	0.058284
244.00	0.058284
244.25	0.058142
244.50	0.057895
244.75	0.058530
245.00	0.058807
245.25	0.059405
245.50	0.058104
245.75	0.057880
246.00	0.058530
246.25	0.058971
246.50	0.059360
246.75	0.059360
247.00	0.060817
247.25	0.061542
247.50	0.062775
247.75	0.065174
248.00	0.068619
248.25	0.067775
248.50	0.069524
248.75	0.070398
249.00	0.069748
249.25	0.068320
249.50	0.067962
249.75	0.065518
250.00	0.066325
250.25	0.063807
250.50	0.062319
250.75	0.062925
251.00	0.061363
251.25	0.062379
251.50	0.061990
251.75	0.060653
252.00	0.059756
252.25	0.060264
252.50	0.060040
252.75	0.059898
253.00	0.062282
253.25	0.064614
253.50	0.066138
253.75	0.068627
254.00	0.070443
254.25	0.073051
254.50	0.072289
254.75	0.070996
255.00	0.070959
255.25	0.070323
255.50	0.067842
255.75	0.065219
256.00	0.063799
256.25	0.063388
256.50	0.060772
256.75	0.059920
257.00	0.060234
257.25	0.058994
257.50	0.056722
257.75	0.056767
258.00	0.056348
258.25	0.055078
258.50	0.054801
258.75	0.054786
259.00	0.054390
259.25	0.056258
259.50	0.056363
259.75	0.057910
260.00	0.059173
260.25	0.061587
260.50	0.061796
260.75	0.060907
261.00	0.060414
261.25	0.059554
261.50	0.057529
261.75	0.057163
262.00	0.054913
262.25	0.053859
262.50	0.052955
262.75	0.052357
263.00	0.051461
263.25	0.051640
263.50	0.050534
263.75	0.049981
264.00	0.049465
264.25	0.048733
264.50	0.047888
264.75	0.049547
265.00	0.048479
265.25	0.049226
265.50	0.047477
265.75	0.048112
266.00	0.046648
266.25	0.047141
266.50	0.045385
266.75	0.045923
267.00	0.046461
267.25	0.047208
267.50	0.045639
267.75	0.044772
268.00	0.045198
268.25	0.044600
268.50	0.044002
268.75	0.044436
269.00	0.043412
269.25	0.044219
269.50	0.043292
269.75	0.042933
270.00	0.043883
270.25	0.042567
270.50	0.042380
270.75	0.041768
271.00	0.042470
271.25	0.042597
271.50	0.040265
271.75	0.040191
272.00	0.040557
272.25	0.040826
272.50	0.039757
272.75	0.039010
273.00	0.039810
273.25	0.039563
273.50	0.039129
273.75	0.038300
274.00	0.037956
274.25	0.037866
274.50	0.037777
274.75	0.038748
275.00	0.037351
275.25	0.036506
275.50	0.037373
275.75	0.036985
276.00	0.037515
276.25	0.037179
276.50	0.037216
276.75	0.037097
277.00	0.036970
277.25	0.036828
277.50	0.038016
277.75	0.037142
278.00	0.036738
278.25	0.036058
278.50	0.036962
278.75	0.035565
279.00	0.035669
279.25	0.037336
279.50	0.037710
279.75	0.038457
280.00	0.037530
280.25	0.037343
280.50	0.036708
280.75	0.038576
281.00	0.038853
281.25	0.037246
281.50	0.037911
281.75	0.038898
282.00	0.037956
282.25	0.038786
282.50	0.039122
282.75	0.038816
283.00	0.038629
283.25	0.038180
283.50	0.040609
283.75	0.040250
284.00	0.040430
284.25	0.039765
284.50	0.039697
284.75	0.041431
285.00	0.040176
285.25	0.041155
285.50	0.040041
285.75	0.041611
286.00	0.040602
286.25	0.041117
286.50	0.042567
286.75	0.042522
287.00	0.042328
287.25	0.043501
287.50	0.042620
287.75	0.043561
288.00	0.043322
288.25	0.044181
288.50	0.044652
288.75	0.043853
289.00	0.043793
289.25	0.045863
289.50	0.043785
289.75	0.045557
290.00	0.045601
290.25	0.045751
290.50	0.047948
290.75	0.046551
291.00	0.045340
291.25	0.045743
291.50	0.047604
291.75	0.046640
292.00	0.045938
292.25	0.047425
292.50	0.047462
292.75	0.047193
293.00	0.046737
293.25	0.046834
293.50	0.046872
293.75	0.046707
294.00	0.047014
294.25	0.045923
294.50	0.046991
294.75	0.047066
295.00	0.045086
295.25	0.047111
295.50	0.045960
295.75	0.045796
296.00	0.046962
296.25	0.047462
296.50	0.047111
296.75	0.046588
297.00	0.045736
297.25	0.046618
297.50	0.046827
297.75	0.045915
298.00	0.046864
298.25	0.046349
298.50	0.045968
298.75	0.045228
299.00	0.045317
299.25	0.047664
299.50	0.043942
299.75	0.045422
300.00	0.044069
300.25	0.045474
300.50	0.044720
300.75	0.044899
301.00	0.043180
301.25	0.042380
301.50	0.042111
301.75	0.040654
302.00	0.040131
302.25	0.040131
302.50	0.039817
302.75	0.038352
303.00	0.037284
303.25	0.036215
303.50	0.033577
303.75	0.034361
304.00	0.031395
304.25	0.033353
304.50	0.030311
304.75	0.031798
305.00	0.030445
305.25	0.028921
305.50	0.027703
305.75	0.026178
306.00	0.025080
306.25	0.026126
306.50	0.026716
306.75	0.024504
307.00	0.024384
307.25	0.022419
307.50	0.022950
307.75	0.022703
308.00	0.021014
308.25	0.020850
308.50	0.020543
308.75	0.019258
309.00	0.018548
309.25	0.018002
309.50	0.019347
309.75	0.017913
310.00	0.023077
310.25	0.018824
310.50	0.023024
310.75	0.017845
311.00	0.025939
311.25	0.023368
311.50	0.018884
311.75	0.015200
312.00	0.016029
312.25	0.012517
312.50	0.015529
312.75	0.017957
313.00	0.018062
313.25	0.015850
313.50	0.016784
313.75	0.020723
314.00	0.019101
314.25	0.018623
314.50	0.016097
314.75	0.015095
315.00	0.015424
315.25	0.013615
315.50	0.019557
315.75	0.018346
316.00	0.015671
316.25	0.012024
316.50	0.018675
316.75	0.014729
317.00	0.014019
317.25	0.015506
317.50	0.019004
317.75	0.010619
318.00	0.017090
318.25	0.011867
318.50	0.016040
318.75	0.016388
319.00	0.014961
319.25	0.014654
319.50	0.017382
319.75	0.015760
320.00	0.015366
320.25	0.011829
320.50	0.018623
320.75	0.015289
321.00	0.019168
321.25	0.017145
321.50	0.014295
321.75	0.014856
322.00	0.015536
322.25	0.014266
322.50	0.012367
322.75	0.013802
323.00	0.013279
323.25	0.017995
323.50	0.014893
323.75	0.011598
324.00	0.014863
324.25	0.015551
324.50	0.017277
324.75	0.013877
325.00	0.014467
325.25	0.016679
325.50	0.015162
325.75	0.017352
326.00	0.013174
326.25	0.010349
326.50	0.012248
326.75	0.013615
327.00	0.012861
327.25	0.016455
327.50	0.016388
327.75	0.012308
328.00	0.013025
328.25	0.014213
328.50	0.015611
328.75	0.013997
329.00	0.010148
329.25	0.012629
329.50	0.016134
329.75	0.011112
330.00	0.015155
330.25	0.014916
330.50	0.016291
330.75	0.014378
331.00	0.016209
331.25	0.016074
331.50	0.011179
331.75	0.014983
332.00	0.015297
332.25	0.018159
332.50	0.016343
332.75	0.012838
333.00	0.014527
333.25	0.013369
333.50	0.012935
333.75	0.017718
334.00	0.014841
334.25	0.016784
334.50	0.016231
334.75	0.015110
335.00	0.015043
335.25	0.015394
335.50	0.012838
335.75	0.015626
336.00	0.012472
336.25	0.013877
336.50	0.014266
336.75	0.013488
337.00	0.015551
337.25	0.016515
337.50	0.014946
337.75	0.017606
338.00	0.020468
338.25	0.013496
338.50	0.017315
338.75	0.016627
339.00	0.013369
339.25	0.017898
339.50	0.016239
339.75	0.015035
340.00	0.016762
340.25	0.018167
340.50	0.018167
340.75	0.018645
341.00	0.014430
341.25	0.013025
341.50	0.016478
341.75	0.018062
342.00	0.015768
342.25	0.015125
342.50	0.014557
342.75	0.014348
343.00	0.017300
343.25	0.018645
343.50	0.015715
343.75	0.015379
344.00	0.019086
344.25	0.015910
344.50	0.012517
344.75	0.013339
345.00	0.017203
345.25	0.013952
345.50	0.013832
345.75	0.018264
346.00	0.016328
346.25	0.015872
346.50	0.018824
346.75	0.014535
347.00	0.016836
347.25	0.015170
347.50	0.016709
347.75	0.015992
348.00	0.015125
348.25	0.016097
348.50	0.016866
348.75	0.016926
349.00	0.014086
349.25	0.016754
349.50	0.018316
349.75	0.016067
350.00	0.019056
350.25	0.015435
350.50	0.016351
350.75	0.015458
351.00	0.017711
351.25	0.017707
351.50	0.018802
351.75	0.014905
352.00	0.018944
352.25	0.017274
352.50	0.017001
352.75	0.015809
353.00	0.020005
353.25	0.014650
353.50	0.015245
353.75	0.016310
354.00	0.015820
354.25	0.018327
354.50	0.016560
354.75	0.013059
355.00	0.015641
355.25	0.015472
355.50	0.015327
355.75	0.014411
356.00	0.014662
356.25	0.016302
356.50	0.015910
356.75	0.016466
357.00	0.014288
357.25	0.017573
357.50	0.016971
357.75	0.015898
358.00	0.014041
358.25	0.015159
358.50	0.015364
358.75	0.015203
359.00	0.013996
359.25	0.016444
359.50	0.015955
359.75	0.016377
360.00	0.014826
360.25	0.016945
360.50	0.014946
360.75	0.017019
361.00	0.015745
361.25	0.015338
361.50	0.014669
361.75	0.015951
362.00	0.016635
362.25	0.014112
362.50	0.014796
362.75	0.015846
363.00	0.018211
363.25	0.015734
363.50	0.017061
363.75	0.017027
364.00	0.017345
364.25	0.014381
364.50	0.014819
364.75	0.014172
365.00	0.016493
365.25	0.015248
365.50	0.018286
365.75	0.015614
366.00	0.016029
366.25	0.013881
366.50	0.013301
366.75	0.015742
367.00	0.015783
367.25	0.015196
367.50	0.015887
367.75	0.017961
368.00	0.015730
368.25	0.016511
368.50	0.015312
368.75	0.017789
369.00	0.014736
369.25	0.014912
369.50	0.018712
369.75	0.015981
370.00	0.014258
370.25	0.017087
370.50	0.012890
370.75	0.012565
371.00	0.017397
371.25	0.015383
371.50	0.017995
371.75	0.015637
372.00	0.013840
372.25	0.017132
372.50	0.014751
372.75	0.015480
373.00	0.013810
373.25	0.019635
373.50	0.014961
373.75	0.017371
374.00	0.016186
374.25	0.014792
374.50	0.012793
374.75	0.012214
375.00	0.014916
375.25	0.016070
375.50	0.014340
375.75	0.012588
376.00	0.014819
376.25	0.015749
376.50	0.016351
376.75	0.014643
377.00	0.016358
377.25	0.017386
377.50	0.015185
377.75	0.013978
378.00	0.015529
378.25	0.014322
378.50	0.016321
378.75	0.014710
379.00	0.016440
379.25	0.013739
379.50	0.015162
379.75	0.015786
380.00	0.015745
380.25	0.014232
380.50	0.015768
380.75	0.016788
381.00	0.016134
381.25	0.016511
381.50	0.016537
381.75	0.015794
382.00	0.016904
382.25	0.015174
382.50	0.014796
382.75	0.016833
383.00	0.013511
383.25	0.016399
383.50	0.015842
383.75	0.012909
384.00	0.016664
384.25	0.018798
384.50	0.015118
384.75	0.017236
385.00	0.016014
385.25	0.015607
385.50	0.017158
385.75	0.016362
386.00	0.016881
386.25	0.016481
386.50	0.016358
386.75	0.018768
387.00	0.018899
387.25	0.017924
387.50	0.018084
387.75	0.018133
388.00	0.017487
388.25	0.017700
388.50	0.018010
388.75	0.018858
389.00	0.017748
389.25	0.015801
389.50	0.021007
389.75	0.018903
390.00	0.020371
390.25	0.018118
390.50	0.016283
390.75	0.018140
391.00	0.018944
391.25	0.020681
391.50	0.017285
391.75	0.018888
392.00	0.018466
392.25	0.018738
392.50	0.018630
392.75	0.018858
393.00	0.017987
393.25	0.019740
393.50	0.019377
393.75	0.021451
394.00	0.019781
394.25	0.020674
394.50	0.019691
394.75	0.020913
395.00	0.019945
395.25	0.020928
395.50	0.022576
395.75	0.021765
396.00	0.021724
396.25	0.022378
396.50	0.021619
396.75	0.022916
397.00	0.023151
397.25	0.022602
397.50	0.021044
397.75	0.020801
398.00	0.022935
398.25	0.024149
398.50	0.024138
398.75	0.022856
399.00	0.025416
399.25	0.023932
399.50	0.025401
399.75	0.026384
400.00	0.026641
400.25	0.025457
400.50	0.025715
400.75	0.027004
401.00	0.025819
401.25	0.025442
401.50	0.025946
401.75	0.026884
402.00	0.027105
402.25	0.027826
402.50	0.027329
402.75	0.030150
403.00	0.029945
403.25	0.030696
403.50	0.029339
403.75	0.027026
404.00	0.029601
404.25	0.030778
404.50	0.028689
404.75	0.030345
405.00	0.030714
405.25	0.030457
405.50	0.032822
405.75	0.032190
406.00	0.032770
406.25	0.033947
406.50	0.034840
406.75	0.033640
407.00	0.036080
407.25	0.034918
407.50	0.036589
407.75	0.036009
408.00	0.035460
408.25	0.035867
408.50	0.037388
408.75	0.036816
409.00	0.036080
409.25	0.037437
409.50	0.040467
409.75	0.039185
410.00	0.043217
410.25	0.041853
410.50	0.040086
410.75	0.042137
411.00	0.043524
411.25	0.045590
411.50	0.045721
411.75	0.045575
412.00	0.045728
412.25	0.046128
412.50	0.047896
412.75	0.048131
413.00	0.047731
413.25	0.049798
413.50	0.049622
413.75	0.050216
414.00	0.050721
414.25	0.052496
414.50	0.052462
414.75	0.050567
415.00	0.052948
415.25	0.053146
415.50	0.054726
415.75	0.056494
416.00	0.056909
416.25	0.058370
416.50	0.059121
416.75	0.060238
417.00	0.060526
417.25	0.060470
417.50	0.062753
417.75	0.063317
418.00	0.066019
418.25	0.066134
418.50	0.066205
418.75	0.066770
419.00	0.068649
419.25	0.069722
419.50	0.071519
419.75	0.071224
420.00	0.072924
420.25	0.075110
420.50	0.076780
420.75	0.076388
421.00	0.079852
421.25	0.080879
421.50	0.081638
421.75	0.083376
422.00	0.084104
422.25	0.085745
422.50	0.088812
422.75	0.087471
423.00	0.089276
423.25	0.090565
423.50	0.093177
423.75	0.096828
424.00	0.098244
424.25	0.099047
424.50	0.10135
424.75	0.10048
425.00	0.10238
425.25	0.10600
425.50	0.10688
425.75	0.10800
426.00	0.10899
426.25	0.11231
426.50	0.11232
426.75	0.11464
427.00	0.11831
427.25	0.11858
427.50	0.11826
427.75	0.12431
428.00	0.12523
428.25	0.12639
428.50	0.12751
428.75	0.12965
429.00	0.13160
429.25	0.13364
429.50	0.13495
429.75	0.13911
430.00	0.14030
430.25	0.14203
430.50	0.14261
430.75	0.14465
431.00	0.14716
431.25	0.14938
431.50	0.15005
431.75	0.15422
432.00	0.15561
432.25	0.15670
432.50	0.16009
432.75	0.16229
433.00	0.16246
433.25	0.16848
433.50	0.16664
433.75	0.16855
434.00	0.17397
434.25	0.17480
434.50	0.17742
434.75	0.17950
435.00	0.17937
435.25	0.18548
435.50	0.18645
435.75	0.18965
436.00	0.19378
436.25	0.19550
436.50	0.19732
436.75	0.20077
437.00	0.20181
437.25	0.20287
437.50	0.20584
437.75	0.20904
438.00	0.21219
438.25	0.21314
438.50	0.21620
438.75	0.21707
439.00	0.22117
439.25	0.22369
439.50	0.22637
439.75	0.22820
440.00	0.23128
440.25	0.23519
440.50	0.23656
440.75	0.24106
441.00	0.24264
441.25	0.24471
441.50	0.25010
441.75	0.25138
442.00	0.25684
442.25	0.25769
442.50	0.26335
442.75	0.26498
443.00	0.26925
443.25	0.27111
443.50	0.27512
443.75	0.27933
444.00	0.28286
444.25	0.28767
444.50	0.28849
444.75	0.29440
445.00	0.29647
445.25	0.30066
445.50	0.30628
445.75	0.30878
446.00	0.31324
446.25	0.31847
446.50	0.32467
446.75	0.32814
447.00	0.33334
447.25	0.33681
447.50	0.34094
447.75	0.34628
448.00	0.35066
448.25	0.35582
448.50	0.36013
448.75	0.36588
449.00	0.37020
449.25	0.37594
449.50	0.37976
449.75	0.38653
450.00	0.39308
450.25	0.39859
450.50	0.40330
450.75	0.40815
451.00	0.41220
451.25	0.41741
451.50	0.42254
451.75	0.42743
452.00	0.43723
452.25	0.44115
452.50	0.44591
452.75	0.45227
453.00	0.45654
453.25	0.46011
453.50	0.46646
453.75	0.47104
454.00	0.47706
454.25	0.48215
454.50	0.48595
454.75	0.48764
455.00	0.49190
455.25	0.49609
455.50	0.50069
455.75	0.50615
456.00	0.50859
456.25	0.51430
456.50	0.51823
456.75	0.52355
457.00	0.52796
457.25	0.53103
457.50	0.53686
457.75	0.53992
458.00	0.54203
458.25	0.54629
458.50	0.55060
458.75	0.55251
459.00	0.55691
459.25	0.56039
459.50	0.56344
459.75	0.56651
460.00	0.56714
460.25	0.57131
460.50	0.57357
460.75	0.57488
461.00	0.57808
461.25	0.57851
461.50	0.57989
461.75	0.58222
462.00	0.58326
462.25	0.58538
462.50	0.58685
462.75	0.58801
463.00	0.58827
463.25	0.59058
463.50	0.59188
463.75	0.59260
464.00	0.59478
464.25	0.59375
464.50	0.59408
464.75	0.59801
465.00	0.59554
465.25	0.59846
465.50	0.59834
465.75	0.59905
466.00	0.60058
466.25	0.60137
466.50	0.60180
466.75	0.60275
467.00	0.60598
467.25	0.60621
467.50	0.60652
467.75	0.60677
468.00	0.60844
468.25	0.61197
468.50	0.61222
468.75	0.61416
469.00	0.61687
469.25	0.61929
469.50	0.62180
469.75	0.62509
470.00	0.62716
470.25	0.63050
470.50	0.63316
470.75	0.63747
471.00	0.64119
471.25	0.64475
471.50	0.64914
471.75	0.65474
472.00	0.65991
472.25	0.66276
472.50	0.66787
472.75	0.67392
473.00	0.68085
473.25	0.68455
473.50	0.68988
473.75	0.69814
474.00	0.70426
474.25	0.70980
474.50	0.71790
474.75	0.72482
475.00	0.73154
475.25	0.74096
475.50	0.75210
475.75	0.75830
476.00	0.77184
476.25	0.78083
476.50	0.78831
476.75	0.79495
477.00	0.80394
477.25	0.81136
477.50	0.82089
477.75	0.82900
478.00	0.83563
478.25	0.84786
478.50	0.85166
478.75	0.86673
479.00	0.87207
479.25	0.87906
479.50	0.88600
479.75	0.89282
480.00	0.90083
480.25	0.91002
480.50	0.91856
480.75	0.92454
481.00	0.93285
481.25	0.94152
481.50	0.94791
481.75	0.94981
482.00	0.95995
482.25	0.96538
482.50	0.96908
482.75	0.97654
483.00	0.97746
483.25	0.98199
483.50	0.98771
483.75	0.99027
484.00	0.99397
484.25	0.99282
484.50	0.99544
484.75	0.99753
485.00	1.0000
485.25	0.99932
485.50	0.99293
485.75	0.99468
486.00	0.99715
486.25	0.99181
486.50	0.98805
486.75	0.98713
487.00	0.97987
487.25	0.97783
487.50	0.97064
487.75	0.96363
488.00	0.95797
488.25	0.94983
488.50	0.94055
488.75	0.93463
489.00	0.92206
489.25	0.90817
489.50	0.89958
489.75	0.88699
490.00	0.87396
490.25	0.86341
490.50	0.84845
490.75	0.83572
491.00	0.81972
491.25	0.80565
491.50	0.78864
491.75	0.77574
492.00	0.75790
492.25	0.74060
492.50	0.72472
492.75	0.70519
493.00	0.68937
493.25	0.67064
493.50	0.65144
493.75	0.63719
494.00	0.62166
494.25	0.60680
494.50	0.59450
494.75	0.58302
495.00	0.56712
495.25	0.54997
495.50	0.53085
495.75	0.51369
496.00	0.49607
496.25	0.47915
496.50	0.46420
496.75	0.44694
497.00	0.42940
497.25	0.41203
497.50	0.39612
497.75	0.37893
498.00	0.36280
498.25	0.35089
498.50	0.33507
498.75	0.32057
499.00	0.30797
499.25	0.29441
499.50	0.28162
499.75	0.26932
500.00	0.25691
500.25	0.24477
500.50	0.23208
500.75	0.22167
501.00	0.21051
501.25	0.20324
501.50	0.19194
501.75	0.18291
502.00	0.17216
502.25	0.16526
502.50	0.15815
502.75	0.15005
503.00	0.14211
503.25	0.13607
503.50	0.13001
503.75	0.12049
504.00	0.11788
504.25	0.11179
504.50	0.10744
504.75	0.099619
505.00	0.096099
505.25	0.090942
505.50	0.087624
505.75	0.083006
506.00	0.079127
506.25	0.074942
506.50	0.070772
506.75	0.069030
507.00	0.064300
507.25	0.061034
507.50	0.058605
507.75	0.052910
508.00	0.053800
508.25	0.049951
508.50	0.048195
508.75	0.045086
509.00	0.043382
509.25	0.041723
509.50	0.039772
509.75	0.037156
510.00	0.035931
510.25	0.033375
510.50	0.032321
510.75	0.031387
511.00	0.029676
511.25	0.028233
511.50	0.026754
511.75	0.025580
512.00	0.023323
512.25	0.022897
512.50	0.023533
512.75	0.021709
513.00	0.021328
513.25	0.019871
513.50	0.019056
513.75	0.018555
514.00	0.016239
514.25	0.017636
514.50	0.015760
514.75	0.016358
515.00	0.014355
515.25	0.014834
515.50	0.013115
515.75	0.012644
516.00	0.011545
516.25	0.013189
516.50	0.011463
516.75	0.011022
517.00	0.012517
517.25	0.010917
517.50	0.0098114
517.75	0.010633
518.00	0.010372
518.25	0.0085858
518.50	0.010686
518.75	0.0089296
519.00	0.010013
519.25	0.0068744
519.50	0.0076890
519.75	0.0079879
520.00	0.0083167
520.25	0.0070313
520.50	0.0056487
520.75	0.0075545
521.00	0.0071285
521.25	0.0076740
521.50	0.0071285
521.75	0.0059477
522.00	0.0068071
522.25	0.0072705
522.50	0.0064932
522.75	0.0051107
523.00	0.0048939
523.25	0.0071135
523.50	0.0068295
523.75	0.0062242
524.00	0.0053648
524.25	0.0083691
524.50	0.0045128
524.75	0.0058954
525.00	0.0040569
525.25	0.0052153
525.50	0.0059701
525.75	0.0044156
526.00	0.0051406
526.25	0.0023605
526.50	0.0048939
526.75	0.0040943
527.00	0.0041690
527.25	0.0053349
527.50	0.0030181
527.75	0.0027192
528.00	0.0032498
528.25	0.0040644
528.50	0.0038850
528.75	0.0035637
529.00	0.0040793
529.25	0.0041840
529.50	0.0040196
529.75	0.0041541
530.00	0.0035562
530.25	0.0020242
530.50	0.0038178
530.75	0.0026968
531.00	0.0014188
531.25	0.0029210
531.50	0.0026370
531.75	0.0026669
532.00	0.0046623
532.25	0.0036010
532.50	0.0026594
532.75	0.0020017
533.00	0.0026594
533.25	0.0036160
533.50	0.0026071
533.75	0.00028286
534.00	0.0030630
534.25	0.0027491
534.50	0.0029808
534.75	0.0020242
535.00	0.0027565
535.25	0.0021437
535.50	0.0026146
535.75	0.0020017
536.00	0.0027117
536.25	0.0020391
536.50	0.0027640
536.75	0.0026818
537.00	0.0023231
537.25	0.0024501
537.50	0.0029210
537.75	0.0022035
538.00	0.00072379
538.25	0.00073127
538.50	0.0012768
538.75	0.0013366
539.00	0.0010676
539.25	0.0017476
539.50	0.0022110
539.75	0.00081347
540.00	0.0030929
540.25	-0.00032248
540.50	0.00061169
540.75	0.0019793
541.00	0.0022633
541.25	0.0024053
541.50	0.0017103
541.75	0.00076116
542.00	0.00014834
542.25	0.0022185
542.50	0.0018448
542.75	-0.00051679
543.00	0.0033320
543.25	0.0021512
543.50	0.0033544
543.75	0.0014113
544.00	0.00068643
544.25	0.0020017
544.50	0.0016580
544.75	0.00067895
545.00	-0.00044205
545.25	0.0012170
545.50	0.0020989
545.75	0.0018373
546.00	0.00077611
546.25	0.0021736
546.50	0.0012544
546.75	0.0016505
547.00	0.0012843
547.25	-0.00056163
547.50	0.0017028
547.75	0.00075369
548.00	0.0030779
548.25	0.00097041
548.50	0.00074621
548.75	0.0014188
549.00	0.0025099
549.25	0.00032770
549.50	0.0013889
549.75	0.00076863
550.00	0.0013815
550.25	-6.0911e-05
550.50	-2.3545e-05
550.75	0.00035012
551.00	0.0012992
551.25	0.0026519
551.50	0.00097041
551.75	0.00016329
552.00	0.0016804
552.25	0.00064906
552.50	0.00046970
552.75	-7.5858e-05
553.00	0.00043980
553.25	0.00047717
553.50	0.0028761
553.75	0.0028985
554.00	0.0026818
554.25	0.00020813
554.50	0.0013590
554.75	-0.0010922
555.00	-0.00024027
555.25	0.0023455
555.50	0.0016505
555.75	0.0020242
556.00	0.0011498
556.25	0.0012170
556.50	0.0010302
556.75	0.0025323
557.00	0.00084337
557.25	0.00033518
557.50	0.0014263
557.75	-6.8385e-05
558.00	0.0021213
558.25	0.00013340
558.50	0.00095547
558.75	0.0021811
559.00	0.00085084
559.25	-0.00035985
559.50	0.0031526
559.75	0.0030704
560.00	0.00041738
560.25	0.0030181
560.50	0.00097789
560.75	0.0024277
561.00	0.0024875
561.25	0.0026893
561.50	0.0017551
561.75	0.0031227
562.00	0.00069390
562.25	0.0025249
562.50	0.0021662
562.75	0.0012170
563.00	0.00093305
563.25	0.0030630
563.50	0.0031601
563.75	0.0013366
564.00	-0.00018796
564.25	0.0022409
564.50	0.0033843
564.75	0.0015608
565.00	0.0015533
565.25	8.8556e-05
565.50	0.0021736
565.75	0.0025697
566.00	0.0029733
566.25	0.0024128
566.50	0.0018149
566.75	0.0044455
567.00	0.0028388
567.25	0.0015683
567.50	0.0011199
567.75	0.0033918
568.00	0.0016206
568.25	0.0031452
568.50	0.0020615
568.75	0.0031825
569.00	0.0036384
569.25	0.0033843
569.50	0.0039747
569.75	0.0037804
570.00	0.00087326
570.25	0.0025622
570.50	0.0017103
570.75	0.0035786
571.00	0.0030555
571.25	0.0028089
571.50	0.00023055
571.75	0.0023081
572.00	0.0032647
572.25	0.0038402
572.50	0.0015907
572.75	0.0048566
573.00	0.0022558
573.25	0.0038850
573.50	0.0022409
573.75	0.0014562
574.00	0.0029808
574.25	0.0029882
574.50	0.0033245
574.75	0.0038103
575.00	0.0030106
575.25	0.0041092
575.50	0.0030630
575.75	0.0045427
576.00	0.0032722
576.25	0.0018299
576.50	0.0047370
576.75	0.0019868
577.00	0.0029658
577.25	0.0032647
577.50	0.0038402
577.75	0.0035263
578.00	0.0043409
578.25	0.0022857
578.50	0.0035487
578.75	0.0043110
579.00	0.0042363
579.25	0.0039299
579.50	0.0032872
579.75	0.0044605
580.00	0.0024576
580.25	0.0020466
580.50	0.0043633
580.75	0.0029882
581.00	0.00038749
581.25	0.0037655
581.50	0.0032946
581.75	0.0037057
582.00	0.0039598
582.25	0.0035263
582.50	0.0023829
582.75	0.0039149
583.00	0.0041466
583.25	0.0029583
583.50	0.0030181
583.75	0.0042512
584.00	0.0039074
584.25	0.0036683
584.50	0.0032348
584.75	0.0028761
585.00	0.0036758
585.25	0.0032423
585.50	0.0038626
585.75	0.0022857
586.00	0.0043633
586.25	0.0033694
586.50	0.0010825
586.75	0.0025622
587.00	0.0040868
587.25	0.0035039
587.50	0.0052900
587.75	0.0016131
588.00	0.0045053
588.25	0.0027715
588.50	0.0044007
588.75	0.0037729
589.00	0.0021662
589.25	0.0029284
589.50	0.0032573
589.75	0.0042064
590.00	0.0036309
590.25	0.0013590
590.50	0.0022857
590.75	0.0034815
591.00	0.0024128
591.25	0.0033993
591.50	0.0031153
591.75	0.0032573
592.00	0.0038028
592.25	0.0029284
592.50	0.0031751
592.75	0.0032722
593.00	0.0030929
593.25	0.0045427
593.50	0.0034441
593.75	0.0033245
594.00	0.0041167
594.25	0.0041690
594.50	0.0018000
594.75	0.0028537
595.00	0.0024950
595.25	0.0050359
595.50	0.0020017
595.75	0.0020541
596.00	0.0011647
596.25	0.0027192
596.50	0.0022558
596.75	0.0037879
597.00	0.0035711
597.25	0.00038749
597.50	0.0028612
597.75	0.0041615
598.00	0.00095547
598.25	0.0029135
598.50	0.0030630
598.75	0.0034217
599.00	0.0017551
599.25	0.0010451
599.50	0.0031302
599.75	0.0021960
600.00	0.0019195
