Wavelength (nm)	K08 abs N
220.00	0.092451
220.25	0.091794
220.50	0.092928
220.75	0.090184
221.00	0.089349
221.25	0.089528
221.50	0.084790
221.75	0.086921
222.00	0.085029
222.25	0.083785
222.50	0.083265
222.75	0.081348
223.00	0.078596
223.25	0.078221
223.50	0.078613
223.75	0.077914
224.00	0.076500
224.25	0.075273
224.50	0.074020
224.75	0.070066
225.00	0.070084
225.25	0.068857
225.50	0.067595
225.75	0.067127
226.00	0.064562
226.25	0.062739
226.50	0.062892
226.75	0.060924
227.00	0.060591
227.25	0.059952
227.50	0.057848
227.75	0.056561
228.00	0.055411
228.25	0.055172
228.50	0.053698
228.75	0.053664
229.00	0.051713
229.25	0.048458
229.50	0.048688
229.75	0.047904
230.00	0.046754
230.25	0.046132
230.50	0.045441
230.75	0.041777
231.00	0.041403
231.25	0.040959
231.50	0.040917
231.75	0.037858
232.00	0.035694
232.25	0.037926
232.50	0.035574
232.75	0.035668
233.00	0.032345
233.25	0.030334
233.50	0.030956
233.75	0.030053
234.00	0.028775
234.25	0.029874
234.50	0.029013
234.75	0.026193
235.00	0.024582
235.25	0.022486
235.50	0.023799
235.75	0.021822
236.00	0.022537
236.25	0.023219
236.50	0.020160
236.75	0.019283
237.00	0.021345
237.25	0.019581
237.50	0.019035
237.75	0.019070
238.00	0.016880
238.25	0.017996
238.50	0.016266
238.75	0.016113
239.00	0.016113
239.25	0.016547
239.50	0.017212
239.75	0.015295
240.00	0.016343
240.25	0.014690
240.50	0.014272
240.75	0.014230
241.00	0.012619
241.25	0.011631
241.50	0.013267
241.75	0.013148
242.00	0.012125
242.25	0.011290
242.50	0.011887
242.75	0.010395
243.00	0.010830
243.25	0.010285
243.50	0.010855
243.75	0.010157
244.00	0.011827
244.25	0.0093132
244.50	0.0094751
244.75	0.010276
245.00	0.0089468
245.25	0.0094666
245.50	0.0075153
245.75	0.0079584
246.00	0.0085975
246.25	0.0090661
246.50	0.0089042
246.75	0.0078817
247.00	0.0076517
247.25	0.0072853
247.50	0.0075665
247.75	0.0077028
248.00	0.0072427
248.25	0.0055385
248.50	0.0070382
248.75	0.0062543
249.00	0.0061691
249.25	0.0051380
249.50	0.0071319
249.75	0.0067059
250.00	0.0071149
250.25	0.0063139
250.50	0.0053255
250.75	0.0067911
251.00	0.0064588
251.25	0.0057430
251.50	0.0056322
251.75	0.0047716
252.00	0.0056493
252.25	0.0056408
252.50	0.0052829
252.75	0.0052658
253.00	0.0059731
253.25	0.0063480
253.50	0.0058197
253.75	0.0044905
254.00	0.0062543
254.25	0.0062628
254.50	0.0048995
254.75	0.0057771
255.00	0.0062798
255.25	0.0070723
255.50	0.0051210
255.75	0.0050613
256.00	0.0059731
256.25	0.0059219
256.50	0.0054363
256.75	0.0074386
257.00	0.0078050
257.25	0.0070297
257.50	0.0059816
257.75	0.0059646
258.00	0.0065354
258.25	0.0054277
258.50	0.0061094
258.75	0.0071575
259.00	0.0072512
259.25	0.0068592
259.50	0.0076687
259.75	0.0065440
260.00	0.0061094
260.25	0.0072768
260.50	0.0075665
260.75	0.0081374
261.00	0.0070552
261.25	0.0076772
261.50	0.0076091
261.75	0.0072853
262.00	0.0074131
262.25	0.0080351
262.50	0.0067059
262.75	0.0062202
263.00	0.0084611
263.25	0.0096967
263.50	0.0086827
263.75	0.0079669
264.00	0.0075665
264.25	0.0075920
264.50	0.0064162
264.75	0.0087338
265.00	0.0089554
265.25	0.0086656
265.50	0.0082652
265.75	0.0083248
266.00	0.0081118
266.25	0.0086827
266.50	0.0069104
266.75	0.0078136
267.00	0.0086571
267.25	0.0089042
267.50	0.0086656
267.75	0.0083163
268.00	0.0082396
268.25	0.0075920
268.50	0.0081374
268.75	0.0092195
269.00	0.0095177
269.25	0.0087935
269.50	0.011350
269.75	0.0084526
270.00	0.0096455
270.25	0.0096200
270.50	0.010157
270.75	0.011639
271.00	0.011299
271.25	0.011622
271.50	0.011179
271.75	0.0099267
272.00	0.011358
272.25	0.010651
272.50	0.011196
272.75	0.011801
273.00	0.010233
273.25	0.013062
273.50	0.011324
273.75	0.011887
274.00	0.011571
274.25	0.011827
274.50	0.011895
274.75	0.013514
275.00	0.011503
275.25	0.011512
275.50	0.012909
275.75	0.012611
276.00	0.013531
276.25	0.014877
276.50	0.013931
276.75	0.014409
277.00	0.012866
277.25	0.013949
277.50	0.014613
277.75	0.014358
278.00	0.013582
278.25	0.013718
278.50	0.014622
278.75	0.014000
279.00	0.013446
279.25	0.015857
279.50	0.014477
279.75	0.014928
280.00	0.017093
280.25	0.016403
280.50	0.015874
280.75	0.015644
281.00	0.016675
281.25	0.016726
281.50	0.016650
281.75	0.016812
282.00	0.016104
282.25	0.017519
282.50	0.017101
282.75	0.016794
283.00	0.015951
283.25	0.016735
283.50	0.019087
283.75	0.019018
284.00	0.018524
284.25	0.019410
284.50	0.017382
284.75	0.017536
285.00	0.018277
285.25	0.019206
285.50	0.017621
285.75	0.018448
286.00	0.018763
286.25	0.019470
286.50	0.020390
286.75	0.019104
287.00	0.020075
287.25	0.020194
287.50	0.019487
287.75	0.020143
288.00	0.019087
288.25	0.019862
288.50	0.020058
288.75	0.019649
289.00	0.019461
289.25	0.020075
289.50	0.019853
289.75	0.022359
290.00	0.021379
290.25	0.021438
290.50	0.022768
290.75	0.022324
291.00	0.020203
291.25	0.022529
291.50	0.023245
291.75	0.022606
292.00	0.024054
292.25	0.024881
292.50	0.023978
292.75	0.024744
293.00	0.024088
293.25	0.025443
293.50	0.025341
293.75	0.025298
294.00	0.027011
294.25	0.025452
294.50	0.028366
294.75	0.027582
295.00	0.025656
295.25	0.027812
295.50	0.027872
295.75	0.028033
296.00	0.029133
296.25	0.030198
296.50	0.029848
296.75	0.030470
297.00	0.029695
297.25	0.030615
297.50	0.031229
297.75	0.030215
298.00	0.032209
298.25	0.031893
298.50	0.033972
298.75	0.033768
299.00	0.032950
299.25	0.036409
299.50	0.034228
299.75	0.034134
300.00	0.035532
300.25	0.037253
300.50	0.039221
300.75	0.037645
301.00	0.037244
301.25	0.038650
301.50	0.037534
301.75	0.038753
302.00	0.039000
302.25	0.040329
302.50	0.041147
302.75	0.040806
303.00	0.041812
303.25	0.041888
303.50	0.042118
303.75	0.042868
304.00	0.041343
304.25	0.042843
304.50	0.043141
304.75	0.044427
305.00	0.043175
305.25	0.045407
305.50	0.043839
305.75	0.043575
306.00	0.045510
306.25	0.044717
306.50	0.046796
306.75	0.046506
307.00	0.046992
307.25	0.045944
307.50	0.046617
307.75	0.047009
308.00	0.046617
308.25	0.046336
308.50	0.047128
308.75	0.047103
309.00	0.047912
309.25	0.046967
309.50	0.049046
309.75	0.047359
310.00	0.044257
310.25	0.044206
310.50	0.047265
310.75	0.039869
311.00	0.046694
311.25	0.042255
311.50	0.039034
311.75	0.042928
312.00	0.042672
312.25	0.035847
312.50	0.043098
312.75	0.040014
313.00	0.043081
313.25	0.040968
313.50	0.044939
313.75	0.043669
314.00	0.033316
314.25	0.041437
314.50	0.039579
314.75	0.030104
315.00	0.037261
315.25	0.039179
315.50	0.037611
315.75	0.033640
316.00	0.031161
316.25	0.034177
316.50	0.029422
316.75	0.033921
317.00	0.025988
317.25	0.033674
317.50	0.034671
317.75	0.028033
318.00	0.032413
318.25	0.028579
318.50	0.023347
318.75	0.024727
319.00	0.028962
319.25	0.034628
319.50	0.026934
319.75	0.029507
320.00	0.034168
320.25	0.019751
320.50	0.031092
320.75	0.028545
321.00	0.029507
321.25	0.027173
321.50	0.022572
321.75	0.027403
322.00	0.024744
322.25	0.025741
322.50	0.021336
322.75	0.021046
323.00	0.026142
323.25	0.030308
323.50	0.025912
323.75	0.023338
324.00	0.026125
324.25	0.021924
324.50	0.023006
324.75	0.022069
325.00	0.026074
325.25	0.022614
325.50	0.022478
325.75	0.025946
326.00	0.020356
326.25	0.018379
326.50	0.019027
326.75	0.021089
327.00	0.023688
327.25	0.016411
327.50	0.020203
327.75	0.017723
328.00	0.021992
328.25	0.021643
328.50	0.019359
328.75	0.021021
329.00	0.016786
329.25	0.022733
329.50	0.019572
329.75	0.016760
330.00	0.021012
330.25	0.019112
330.50	0.019180
330.75	0.021208
331.00	0.015917
331.25	0.015559
331.50	0.011162
331.75	0.016837
332.00	0.019163
332.25	0.022077
332.50	0.019044
332.75	0.017289
333.00	0.018516
333.25	0.016743
333.50	0.013079
333.75	0.019606
334.00	0.016104
334.25	0.016292
334.50	0.015636
334.75	0.017425
335.00	0.014954
335.25	0.014835
335.50	0.016002
335.75	0.015133
336.00	0.0099523
336.25	0.0087935
336.50	0.011793
336.75	0.012952
337.00	0.016820
337.25	0.015039
337.50	0.013608
337.75	0.010847
338.00	0.016803
338.25	0.012330
338.50	0.011299
338.75	0.013497
339.00	0.0082055
339.25	0.012807
339.50	0.011094
339.75	0.0089383
340.00	0.011972
340.25	0.012014
340.50	0.010106
340.75	0.013659
341.00	0.013437
341.25	0.011904
341.50	0.012219
341.75	0.0097052
342.00	0.0086571
342.25	0.0097393
342.50	0.0054618
342.75	0.0048228
343.00	0.0076091
343.25	0.0085464
343.50	0.0086827
343.75	0.010864
344.00	0.0064247
344.25	0.0070723
344.50	0.0023858
344.75	0.0071660
345.00	0.010523
345.25	0.0073108
345.50	0.0038088
345.75	0.0072171
346.00	0.0066888
346.25	0.0084611
346.50	0.0082311
346.75	0.0057345
347.00	0.0060412
347.25	0.0049506
347.50	0.0074727
347.75	0.0086230
348.00	0.0083078
348.25	0.0099608
348.50	0.0078817
348.75	0.0077624
349.00	0.0051040
349.25	0.0058538
349.50	0.0096881
349.75	0.0078221
350.00	0.0085804
350.25	0.0053638
350.50	0.0044734
350.75	0.0053383
351.00	0.0069274
351.25	0.0083887
351.50	0.0062628
351.75	0.0040942
352.00	0.0054874
352.25	0.0052275
352.50	0.0033572
352.75	0.0064545
353.00	0.0057175
353.25	0.0051423
353.50	0.0041837
353.75	0.0062074
354.00	0.0016360
354.25	0.0075026
354.50	0.0047716
354.75	0.0028758
355.00	0.0063054
355.25	0.0052019
355.50	0.0073960
355.75	0.0028076
356.00	0.0041581
356.25	0.0080905
356.50	0.0062031
356.75	0.0074344
357.00	0.0048483
357.25	0.0070765
357.50	0.0049591
357.75	0.0065653
358.00	0.0056067
358.25	0.0047077
358.50	0.0054533
358.75	0.0043158
359.00	0.0059816
359.25	0.0081842
359.50	0.0016530
359.75	0.0076474
360.00	0.0064588
360.25	0.0083461
360.50	0.0071830
360.75	0.0043925
361.00	0.0037236
361.25	0.0030377
361.50	0.0048142
361.75	0.0048355
362.00	0.0066803
362.25	0.0030206
362.50	0.0053340
362.75	0.0052190
363.00	0.0077284
363.25	0.0045970
363.50	0.0093388
363.75	0.0022537
364.00	0.0064673
364.25	0.0040005
364.50	0.0039792
364.75	0.0053638
365.00	0.0046779
365.25	0.0061818
365.50	0.0067655
365.75	0.0080564
366.00	0.0039963
366.25	0.0015976
366.50	0.0024199
366.75	0.0049378
367.00	0.0039877
367.25	0.0037534
367.50	0.0059986
367.75	0.0056450
368.00	0.0052744
368.25	0.0039664
368.50	0.0055130
368.75	0.0071106
369.00	0.0044905
369.25	0.0032592
369.50	0.0086486
369.75	0.0068976
370.00	0.0042604
370.25	0.0063267
370.50	0.0036384
370.75	0.0019385
371.00	0.0047631
371.25	0.0026883
371.50	0.0084867
371.75	0.0047844
372.00	0.0048483
372.25	0.0074940
372.50	0.0050784
372.75	0.0033103
373.00	0.0031868
373.25	0.0078945
373.50	0.0054277
373.75	0.0054576
374.00	0.0051721
374.25	0.0047589
374.50	0.0023262
374.75	0.0018107
375.00	0.0031186
375.25	0.0067527
375.50	0.0065184
375.75	0.0058751
376.00	0.0055982
376.25	0.0039579
376.50	0.0042007
376.75	0.0067357
377.00	0.0040133
377.25	0.0071021
377.50	0.0054192
377.75	0.0054831
378.00	0.0058112
378.25	0.0041368
378.50	0.0059305
378.75	0.0056876
379.00	0.0048739
379.25	0.0042135
379.50	0.0064673
379.75	0.0067442
380.00	0.0058964
380.25	0.0047674
380.50	0.0046950
380.75	0.0050997
381.00	0.0048228
381.25	0.0047163
381.50	0.0051125
381.75	0.0042817
382.00	0.0047631
382.25	0.0023645
382.50	0.0033146
382.75	0.0027309
383.00	0.0039281
383.25	0.0075537
383.50	0.0066718
383.75	0.0035830
384.00	0.0064673
384.25	0.0059773
384.50	0.0029482
384.75	0.0060881
385.00	0.0051806
385.25	0.0036852
385.50	0.0057089
385.75	0.0028672
386.00	0.0043882
386.25	0.0048782
386.50	0.0044223
386.75	0.0079456
387.00	0.0067144
387.25	0.0065312
387.50	0.0059816
387.75	0.0060796
388.00	0.0066803
388.25	0.0050060
388.50	0.0078391
388.75	0.0058240
389.00	0.0045842
389.25	0.0033444
389.50	0.0055982
389.75	0.0066164
390.00	0.0069870
390.25	0.0053553
390.50	0.0041241
390.75	0.0069743
391.00	0.0053085
391.25	0.0058410
391.50	0.0025648
391.75	0.0035745
392.00	0.0064588
392.25	0.0093175
392.50	0.0029482
392.75	0.0053383
393.00	0.0038684
393.25	0.0048185
393.50	0.0064928
393.75	0.0045203
394.00	0.0058964
394.25	0.0045970
394.50	0.0050187
394.75	0.0038045
395.00	0.0053255
395.25	0.0042221
395.50	0.0061350
395.75	0.0070254
396.00	0.0070382
396.25	0.0053468
396.50	0.0046864
396.75	0.0058069
397.00	0.0065269
397.25	0.0076218
397.50	0.0054618
397.75	0.0036852
398.00	0.0061009
398.25	0.0045544
398.50	0.0055556
398.75	0.0048100
399.00	0.0060412
399.25	0.0037193
399.50	0.0043967
399.75	0.0066249
400.00	0.0066462
400.25	0.0077156
400.50	0.0054022
400.75	0.0051849
401.00	0.0055044
401.25	0.0073236
401.50	0.0044393
401.75	0.0056195
402.00	0.0061946
402.25	0.0084824
402.50	0.0062202
402.75	0.0059603
403.00	0.0055470
403.25	0.0081161
403.50	0.0043626
403.75	0.0031058
404.00	0.0052829
404.25	0.0037278
404.50	0.0051806
404.75	0.0042135
405.00	0.0045927
405.25	0.0044692
405.50	0.0064928
405.75	0.0046055
406.00	0.0051125
406.25	0.0065056
406.50	0.0043030
406.75	0.0051679
407.00	0.0051636
407.25	0.0044351
407.50	0.0049250
407.75	0.0071958
408.00	0.0061009
408.25	0.0049634
408.50	0.0070808
408.75	0.0062330
409.00	0.0048824
409.25	0.0048867
409.50	0.0052999
409.75	0.0043073
410.00	0.0081459
410.25	0.0075111
410.50	0.0052403
410.75	0.0050315
411.00	0.0065781
411.25	0.0058666
411.50	0.0059986
411.75	0.0039835
412.00	0.0047887
412.25	0.0064715
412.50	0.0059816
412.75	0.0055769
413.00	0.0062031
413.25	0.0048867
413.50	0.0054107
413.75	0.0071106
414.00	0.0068252
414.25	0.0044521
414.50	0.0069870
414.75	0.0050912
415.00	0.0051977
415.25	0.0041198
415.50	0.0060072
415.75	0.0062585
416.00	0.0057515
416.25	0.0057388
416.50	0.0050443
416.75	0.0061137
417.00	0.0048057
417.25	0.0047163
417.50	0.0058027
417.75	0.0056876
418.00	0.0058453
418.25	0.0057388
418.50	0.0030930
418.75	0.0065056
419.00	0.0056237
419.25	0.0039664
419.50	0.0061776
419.75	0.0051849
420.00	0.0050017
420.25	0.0050656
420.50	0.0039707
420.75	0.0045288
421.00	0.0061861
421.25	0.0065397
421.50	0.0036980
421.75	0.0053638
422.00	0.0058708
422.25	0.0057217
422.50	0.0047546
422.75	0.0048185
423.00	0.0029397
423.25	0.0064971
423.50	0.0064758
423.75	0.0059773
424.00	0.0078306
424.25	0.0059347
424.50	0.0059134
424.75	0.0060881
425.00	0.0058367
425.25	0.0073918
425.50	0.0067570
425.75	0.0037193
426.00	0.0051721
426.25	0.0057984
426.50	0.0058708
426.75	0.0062585
427.00	0.0065269
427.25	0.0052786
427.50	0.0027181
427.75	0.0071106
428.00	0.0054959
428.25	0.0056621
428.50	0.0029397
428.75	0.0053042
429.00	0.0053937
429.25	0.0055854
429.50	0.0057941
429.75	0.0075026
430.00	0.0053170
430.25	0.0059603
430.50	0.0047887
430.75	0.0058495
431.00	0.0068422
431.25	0.0036256
431.50	0.0045160
431.75	0.0074173
432.00	0.0041667
432.25	0.0051253
432.50	0.0055300
432.75	0.0071958
433.00	0.0062969
433.25	0.0073577
433.50	0.0052488
433.75	0.0043839
434.00	0.0066973
434.25	0.0050997
434.50	0.0068081
434.75	0.0062500
435.00	0.0045842
435.25	0.0076900
435.50	0.0046268
435.75	0.0072555
436.00	0.0060498
436.25	0.0055598
436.50	0.0051977
436.75	0.0060029
437.00	0.0069359
437.25	0.0067783
437.50	0.0056663
437.75	0.0073151
438.00	0.0069700
438.25	0.0049719
438.50	0.0055130
438.75	0.0041624
439.00	0.0054448
439.25	0.0047844
439.50	0.0078988
439.75	0.0068209
440.00	0.0080607
440.25	0.0059262
440.50	0.0059305
440.75	0.0062500
441.00	0.0071404
441.25	0.0062159
441.50	0.0075324
441.75	0.0057984
442.00	0.0063139
442.25	0.0061989
442.50	0.0079755
442.75	0.0055087
443.00	0.0075153
443.25	0.0074855
443.50	0.0063054
443.75	0.0075111
444.00	0.0075579
444.25	0.0080053
444.50	0.0061691
444.75	0.0073151
445.00	0.0064673
445.25	0.0062330
445.50	0.0083504
445.75	0.0041454
446.00	0.0053085
446.25	0.0063096
446.50	0.0080521
446.75	0.0090363
447.00	0.0081203
447.25	0.0066164
447.50	0.0077624
447.75	0.0085165
448.00	0.0077539
448.25	0.0068976
448.50	0.0083333
448.75	0.0086614
449.00	0.0076772
449.25	0.0088148
449.50	0.0078732
449.75	0.0077156
450.00	0.0084356
450.25	0.0079712
450.50	0.0082652
450.75	0.0072043
451.00	0.0073790
451.25	0.0074940
451.50	0.0074301
451.75	0.0072895
452.00	0.010191
452.25	0.0088659
452.50	0.0092110
452.75	0.0095135
453.00	0.0092621
453.25	0.0076474
453.50	0.0091598
453.75	0.0085677
454.00	0.0076772
454.25	0.0070083
454.50	0.0093558
454.75	0.0079882
455.00	0.0088531
455.25	0.0098032
455.50	0.0088020
455.75	0.0090107
456.00	0.0093132
456.25	0.0093771
456.50	0.0082907
456.75	0.010902
457.00	0.0093473
457.25	0.0097094
457.50	0.0091854
457.75	0.0091812
458.00	0.0086486
458.25	0.0081587
458.50	0.011017
458.75	0.010621
459.00	0.010327
459.25	0.010391
459.50	0.011844
459.75	0.011005
460.00	0.0099352
460.25	0.012342
460.50	0.011350
460.75	0.010894
461.00	0.010395
461.25	0.011473
461.50	0.010574
461.75	0.012283
462.00	0.011282
462.25	0.010476
462.50	0.013182
462.75	0.010263
463.00	0.012202
463.25	0.012530
463.50	0.013454
463.75	0.012087
464.00	0.011767
464.25	0.013194
464.50	0.011103
464.75	0.012922
465.00	0.012594
465.25	0.013476
465.50	0.013889
465.75	0.013893
466.00	0.014093
466.25	0.012871
466.50	0.014051
466.75	0.013075
467.00	0.015218
467.25	0.014413
467.50	0.014051
467.75	0.015239
468.00	0.014025
468.25	0.014549
468.50	0.014366
468.75	0.012325
469.00	0.012943
469.25	0.014873
469.50	0.016130
469.75	0.016569
470.00	0.013071
470.25	0.013109
470.50	0.015133
470.75	0.014813
471.00	0.015218
471.25	0.016415
471.50	0.015925
471.75	0.017540
472.00	0.017033
472.25	0.014669
472.50	0.016564
472.75	0.015418
473.00	0.018379
473.25	0.015878
473.50	0.016709
473.75	0.019883
474.00	0.017953
474.25	0.017114
474.50	0.017928
474.75	0.016875
475.00	0.018831
475.25	0.016594
475.50	0.020084
475.75	0.019040
476.00	0.018737
476.25	0.020659
476.50	0.019819
476.75	0.017966
477.00	0.019981
477.25	0.020846
477.50	0.019947
477.75	0.020224
478.00	0.020015
478.25	0.021136
478.50	0.020143
478.75	0.021724
479.00	0.020015
479.25	0.022252
479.50	0.023160
479.75	0.022065
480.00	0.022120
480.25	0.022942
480.50	0.022878
480.75	0.023956
481.00	0.023057
481.25	0.024024
481.50	0.024608
481.75	0.025524
482.00	0.024625
482.25	0.024715
482.50	0.023926
482.75	0.025822
483.00	0.023901
483.25	0.024374
483.50	0.025290
483.75	0.026802
484.00	0.027658
484.25	0.026581
484.50	0.026346
484.75	0.027126
485.00	0.026389
485.25	0.029418
485.50	0.027079
485.75	0.028131
486.00	0.030360
486.25	0.030210
486.50	0.028894
486.75	0.030108
487.00	0.028885
487.25	0.030790
487.50	0.030905
487.75	0.030509
488.00	0.031288
488.25	0.033764
488.50	0.034237
488.75	0.033610
489.00	0.031706
489.25	0.034104
489.50	0.034373
489.75	0.033150
490.00	0.033989
490.25	0.036627
490.50	0.036401
490.75	0.036984
491.00	0.035966
491.25	0.036567
491.50	0.038608
491.75	0.038186
492.00	0.037832
492.25	0.038373
492.50	0.037807
492.75	0.038535
493.00	0.039860
493.25	0.039404
493.50	0.040866
493.75	0.041552
494.00	0.041334
494.25	0.042054
494.50	0.040508
494.75	0.042549
495.00	0.043609
495.25	0.044082
495.50	0.045569
495.75	0.045642
496.00	0.045936
496.25	0.046647
496.50	0.047043
496.75	0.047823
497.00	0.047393
497.25	0.049067
497.50	0.047188
497.75	0.047457
498.00	0.048108
498.25	0.050405
498.50	0.049225
498.75	0.050498
499.00	0.051449
499.25	0.052399
499.50	0.052795
499.75	0.053438
500.00	0.053434
500.25	0.053907
500.50	0.054976
500.75	0.056327
501.00	0.056357
501.25	0.057860
501.50	0.058188
501.75	0.058525
502.00	0.058461
502.25	0.058678
502.50	0.060157
502.75	0.062530
503.00	0.060838
503.25	0.061729
503.50	0.061691
503.75	0.062180
504.00	0.063275
504.25	0.066253
504.50	0.064409
504.75	0.064498
505.00	0.065124
505.25	0.067600
505.50	0.069726
505.75	0.068401
506.00	0.070152
506.25	0.070360
506.50	0.070322
506.75	0.071426
507.00	0.070118
507.25	0.071289
507.50	0.071924
507.75	0.072601
508.00	0.075051
508.25	0.074399
508.50	0.076116
508.75	0.074604
509.00	0.075613
509.25	0.077177
509.50	0.078229
509.75	0.078293
510.00	0.081927
510.25	0.079963
510.50	0.080521
510.75	0.082400
511.00	0.081825
511.25	0.085127
511.50	0.084714
511.75	0.086405
512.00	0.085097
512.25	0.086209
512.50	0.088591
512.75	0.089924
513.00	0.089971
513.25	0.091569
513.50	0.090729
513.75	0.091978
514.00	0.093209
514.25	0.094679
514.50	0.097026
514.75	0.097465
515.00	0.096702
515.25	0.098837
515.50	0.099506
515.75	0.10265
516.00	0.10269
516.25	0.10494
516.50	0.10338
516.75	0.10566
517.00	0.10818
517.25	0.10883
517.50	0.11120
517.75	0.11191
518.00	0.11235
518.25	0.11256
518.50	0.11643
518.75	0.11699
519.00	0.11736
519.25	0.11877
519.50	0.11960
519.75	0.12156
520.00	0.12178
520.25	0.12431
520.50	0.12456
520.75	0.12713
521.00	0.12920
521.25	0.12914
521.50	0.13321
521.75	0.13377
522.00	0.13414
522.25	0.13721
522.50	0.13885
522.75	0.13953
523.00	0.14034
523.25	0.14340
523.50	0.14395
523.75	0.14593
524.00	0.14942
524.25	0.15401
524.50	0.15131
524.75	0.15489
525.00	0.15562
525.25	0.15953
525.50	0.16013
525.75	0.16191
526.00	0.16483
526.25	0.16447
526.50	0.16866
526.75	0.16782
527.00	0.16996
527.25	0.17533
527.50	0.17763
527.75	0.17762
528.00	0.18067
528.25	0.18326
528.50	0.18724
528.75	0.18862
529.00	0.19086
529.25	0.19344
529.50	0.19473
529.75	0.19757
530.00	0.20020
530.25	0.20081
530.50	0.20683
530.75	0.20674
531.00	0.20780
531.25	0.21066
531.50	0.21481
531.75	0.21690
532.00	0.22106
532.25	0.22313
532.50	0.22493
532.75	0.22614
533.00	0.22898
533.25	0.23117
533.50	0.23372
533.75	0.23384
534.00	0.23910
534.25	0.23996
534.50	0.24244
534.75	0.24528
535.00	0.24646
535.25	0.24873
535.50	0.25016
535.75	0.25374
536.00	0.25700
536.25	0.25854
536.50	0.26176
536.75	0.26499
537.00	0.26454
537.25	0.27072
537.50	0.27091
537.75	0.27327
538.00	0.27486
538.25	0.27742
538.50	0.28040
538.75	0.28313
539.00	0.28553
539.25	0.28875
539.50	0.29279
539.75	0.29222
540.00	0.29540
540.25	0.29574
540.50	0.29760
540.75	0.30220
541.00	0.30249
541.25	0.30469
541.50	0.30854
541.75	0.30934
542.00	0.31038
542.25	0.31449
542.50	0.31648
542.75	0.31803
543.00	0.31988
543.25	0.31979
543.50	0.32507
543.75	0.32489
544.00	0.32566
544.25	0.32718
544.50	0.33108
544.75	0.33103
545.00	0.33112
545.25	0.33347
545.50	0.33521
545.75	0.33542
546.00	0.33686
546.25	0.34136
546.50	0.34084
546.75	0.34372
547.00	0.34139
547.25	0.34155
547.50	0.34524
547.75	0.34830
548.00	0.34913
548.25	0.34937
548.50	0.35223
548.75	0.35258
549.00	0.35504
549.25	0.35291
549.50	0.35625
549.75	0.35548
550.00	0.35924
550.25	0.35899
550.50	0.35942
550.75	0.36331
551.00	0.36454
551.25	0.36682
551.50	0.36743
551.75	0.36786
552.00	0.37117
552.25	0.37092
552.50	0.37128
552.75	0.37321
553.00	0.37648
553.25	0.37815
553.50	0.38050
553.75	0.37939
554.00	0.38273
554.25	0.38422
554.50	0.38497
554.75	0.38723
555.00	0.38893
555.25	0.39591
555.50	0.39809
555.75	0.40063
556.00	0.40238
556.25	0.40337
556.50	0.40825
556.75	0.41038
557.00	0.41391
557.25	0.41441
557.50	0.41761
557.75	0.41988
558.00	0.42599
558.25	0.42823
558.50	0.43003
558.75	0.43491
559.00	0.43744
559.25	0.44037
559.50	0.44551
559.75	0.44960
560.00	0.45338
560.25	0.45390
560.50	0.46197
560.75	0.46768
561.00	0.47162
561.25	0.47425
561.50	0.47993
561.75	0.48548
562.00	0.48813
562.25	0.49545
562.50	0.49855
562.75	0.50403
563.00	0.51114
563.25	0.51647
563.50	0.52007
563.75	0.52579
564.00	0.53188
564.25	0.54135
564.50	0.54720
564.75	0.55239
565.00	0.55918
565.25	0.56487
565.50	0.57013
565.75	0.57896
566.00	0.58308
566.25	0.59216
566.50	0.59645
566.75	0.60720
567.00	0.61643
567.25	0.62174
567.50	0.62722
567.75	0.63754
568.00	0.64392
568.25	0.65133
568.50	0.66027
568.75	0.67040
569.00	0.67673
569.25	0.68416
569.50	0.69330
569.75	0.69865
570.00	0.70838
570.25	0.72004
570.50	0.72744
570.75	0.73663
571.00	0.74537
571.25	0.75476
571.50	0.75907
571.75	0.76682
572.00	0.77993
572.25	0.78573
572.50	0.79516
572.75	0.80358
573.00	0.80828
573.25	0.81542
573.50	0.82246
573.75	0.82920
574.00	0.83263
574.25	0.84277
574.50	0.84905
574.75	0.85654
575.00	0.86348
575.25	0.87211
575.50	0.88335
575.75	0.88715
576.00	0.89690
576.25	0.89829
576.50	0.91112
576.75	0.91252
577.00	0.92378
577.25	0.92761
577.50	0.93528
577.75	0.94180
578.00	0.94625
578.25	0.94977
578.50	0.95280
578.75	0.96114
579.00	0.96345
579.25	0.97145
579.50	0.97507
579.75	0.97941
580.00	0.97956
580.25	0.98384
580.50	0.98551
580.75	0.98561
581.00	0.98737
581.25	0.99561
581.50	0.99268
581.75	0.99548
582.00	1.0000
582.25	0.99985
582.50	0.99439
582.75	0.99694
583.00	0.99874
583.25	0.99184
583.50	0.99502
583.75	0.99294
584.00	0.98953
584.25	0.98802
584.50	0.98302
584.75	0.97829
585.00	0.97678
585.25	0.97260
585.50	0.96980
585.75	0.96396
586.00	0.96097
586.25	0.95631
586.50	0.94795
586.75	0.94155
587.00	0.94004
587.25	0.93044
587.50	0.92626
587.75	0.91736
588.00	0.91017
588.25	0.90407
588.50	0.89635
588.75	0.89171
589.00	0.87947
589.25	0.87262
589.50	0.86134
589.75	0.85386
590.00	0.84730
590.25	0.83482
590.50	0.82601
590.75	0.81704
591.00	0.80710
591.25	0.79650
591.50	0.78693
591.75	0.77590
592.00	0.76471
592.25	0.75485
592.50	0.74284
592.75	0.73476
593.00	0.72089
593.25	0.71183
593.50	0.69843
593.75	0.68778
594.00	0.67716
594.25	0.66571
594.50	0.65350
594.75	0.63864
595.00	0.62449
595.25	0.60862
595.50	0.59471
595.75	0.58553
596.00	0.56980
596.25	0.56142
596.50	0.54945
596.75	0.54034
597.00	0.52907
597.25	0.51541
597.50	0.50767
597.75	0.49694
598.00	0.48518
598.25	0.47572
598.50	0.46310
598.75	0.45435
599.00	0.44323
599.25	0.43224
599.50	0.42443
599.75	0.41425
600.00	0.40497
600.25	0.39544
600.50	0.38647
600.75	0.37681
601.00	0.36691
601.25	0.35738
601.50	0.34832
601.75	0.34060
602.00	0.33096
602.25	0.32330
602.50	0.31439
602.75	0.30646
603.00	0.29917
603.25	0.29037
603.50	0.28400
603.75	0.27458
604.00	0.26892
604.25	0.25981
604.50	0.25348
604.75	0.24469
605.00	0.23888
605.25	0.23136
605.50	0.22445
605.75	0.22000
606.00	0.21266
606.25	0.20880
606.50	0.20210
606.75	0.19519
607.00	0.18836
607.25	0.18562
607.50	0.17975
607.75	0.17141
608.00	0.16880
608.25	0.16411
608.50	0.15879
608.75	0.15323
609.00	0.14874
609.25	0.14339
609.50	0.13856
609.75	0.13713
610.00	0.12895
610.25	0.12987
610.50	0.12331
610.75	0.12116
611.00	0.11471
611.25	0.11276
611.50	0.10942
611.75	0.10879
612.00	0.10358
612.25	0.10047
612.50	0.097921
612.75	0.094180
613.00	0.092800
613.25	0.091420
613.50	0.088497
613.75	0.087977
614.00	0.085489
614.25	0.082839
614.50	0.079414
614.75	0.078766
615.00	0.076909
615.25	0.073296
615.50	0.070578
615.75	0.069479
616.00	0.068073
616.25	0.065346
616.50	0.064647
616.75	0.063420
617.00	0.061733
617.25	0.058291
617.50	0.057848
617.75	0.055487
618.00	0.055172
618.25	0.055700
618.50	0.052318
618.75	0.052105
619.00	0.050503
619.25	0.048236
619.50	0.046822
619.75	0.044402
620.00	0.046609
620.25	0.045680
620.50	0.043686
620.75	0.044436
621.00	0.042059
621.25	0.039392
621.50	0.042408
621.75	0.038437
622.00	0.040261
622.25	0.039272
622.50	0.038522
622.75	0.038011
623.00	0.037577
623.25	0.036972
623.50	0.035455
623.75	0.034279
624.00	0.034577
624.25	0.032907
624.50	0.032660
624.75	0.034646
625.00	0.033350
625.25	0.031271
625.50	0.029891
625.75	0.030692
626.00	0.029882
626.25	0.029388
626.50	0.027667
626.75	0.030411
627.00	0.029090
627.25	0.027752
627.50	0.027249
627.75	0.026099
628.00	0.025716
628.25	0.024582
628.50	0.026304
628.75	0.024838
629.00	0.024497
629.25	0.022529
629.50	0.021481
629.75	0.020203
630.00	0.023475
630.25	0.022299
630.50	0.021856
630.75	0.020475
631.00	0.019564
631.25	0.020561
631.50	0.020458
631.75	0.018805
632.00	0.019061
632.25	0.017067
632.50	0.020535
632.75	0.016539
633.00	0.016275
633.25	0.015763
633.50	0.016488
633.75	0.015090
634.00	0.015440
634.25	0.015235
634.50	0.014980
634.75	0.014588
635.00	0.014093
635.25	0.014008
635.50	0.013318
635.75	0.012560
636.00	0.012048
636.25	0.011571
636.50	0.012304
636.75	0.012892
637.00	0.011955
637.25	0.010020
637.50	0.012474
637.75	0.010890
638.00	0.0095944
638.25	0.011435
638.50	0.011171
638.75	0.0082311
639.00	0.010855
639.25	0.0094496
639.50	0.0068252
639.75	0.0072597
640.00	0.0099608
640.25	0.0080436
640.50	0.0087338
640.75	0.0055896
641.00	0.0084697
641.25	0.0073108
641.50	0.0083248
641.75	0.0053511
642.00	0.0079414
642.25	0.0067655
642.50	0.0063736
642.75	0.0072256
643.00	0.0059305
643.25	0.0060498
643.50	0.0060412
643.75	0.0068337
644.00	0.0053681
644.25	0.0060242
644.50	0.0050273
644.75	0.0051721
645.00	0.0046438
645.25	0.0036980
645.50	0.0063821
645.75	0.0044564
646.00	0.0056237
646.25	0.0039963
646.50	0.0048313
646.75	0.0060668
647.00	0.0050102
647.25	0.0037747
647.50	0.0041922
647.75	0.0049421
648.00	0.0032975
648.25	0.0038344
648.50	0.0029397
648.75	0.0034594
649.00	0.0048568
649.25	0.0046864
649.50	0.0026414
649.75	0.0021984
650.00	0.0045160
650.25	0.0033316
650.50	0.0038940
650.75	0.0027096
651.00	0.0037321
651.25	0.0069785
651.50	0.0028459
651.75	0.00055385
652.00	0.0023347
652.25	0.0031357
652.50	0.0032549
652.75	0.0019257
653.00	0.0019683
653.25	0.0022239
653.50	0.0041752
653.75	0.0032720
654.00	0.00051977
654.25	0.0010566
654.50	0.0030760
654.75	0.0025307
655.00	0.0017127
655.25	0.0015593
655.50	0.0032123
655.75	0.0035361
656.00	0.0017808
656.25	0.0021558
656.50	0.0030419
656.75	0.0027096
657.00	0.0016360
657.25	0.0028289
657.50	-0.00030675
657.75	0.0010481
658.00	0.0021898
658.25	0.0033913
658.50	0.00078391
658.75	0.0016701
659.00	0.0032294
659.25	0.0034935
659.50	0.0015337
659.75	0.0023091
660.00	0.0017553
660.25	0.0025903
660.50	0.0020876
660.75	0.00093729
661.00	0.00080095
661.25	0.0034594
661.50	0.0030334
661.75	0.00082652
662.00	0.00011929
662.25	0.0028033
662.50	0.0041922
662.75	0.00038343
663.00	0.0013378
663.25	0.0033316
663.50	0.0032294
663.75	0.00088616
664.00	-0.00040048
664.25	-5.1125e-05
664.50	0.0038344
664.75	0.0018320
665.00	0.00031527
665.25	0.0013378
665.50	0.0038940
665.75	0.0022410
666.00	0.0016019
666.25	-0.00021302
666.50	0.0029652
666.75	0.0017808
667.00	0.0041070
667.25	0.0010310
667.50	0.0023432
667.75	0.0013292
668.00	0.0020450
668.25	0.0022750
668.50	0.0011418
668.75	0.0015423
669.00	0.0031953
669.25	0.0030249
669.50	0.0012185
669.75	-0.00034935
670.00	0.0010055
670.25	0.00033231
670.50	-0.00037492
670.75	0.00046012
671.00	0.00082652
671.25	0.0029141
671.50	0.0039110
671.75	0.00032379
672.00	-0.00080948
672.25	0.0025477
672.50	0.0026585
672.75	0.00012781
673.00	0.00024710
673.25	0.00057089
673.50	0.0032635
673.75	0.0016189
674.00	0.0023943
674.25	0.0025051
674.50	0.00090320
674.75	0.0016445
675.00	0.0018916
675.25	0.0022495
675.50	0.0024029
675.75	0.0027948
676.00	0.0029652
676.25	0.0021813
676.50	0.00030675
676.75	0.0033401
677.00	0.0026414
677.25	0.0029482
677.50	0.0030164
677.75	0.00099693
678.00	0.0017808
678.25	0.00025562
678.50	0.0016189
678.75	0.0023943
679.00	0.0012270
679.25	0.0018490
679.50	0.0013122
679.75	0.0021217
680.00	0.0019598
680.25	0.0014741
680.50	0.0025733
680.75	-5.1125e-05
681.00	0.0022836
681.25	0.0011673
681.50	0.0014571
681.75	0.0014911
682.00	0.00084356
682.25	0.0030249
682.50	0.00085208
682.75	0.0012100
683.00	-0.00025562
683.25	0.0019853
683.50	0.0033828
683.75	0.0013207
684.00	0.00066462
684.25	0.0017808
684.50	0.0034680
684.75	-0.00062202
685.00	0.00087764
685.25	0.0025818
685.50	0.0011333
685.75	0.0019939
686.00	0.0022836
686.25	0.0026670
686.50	0.0018234
686.75	0.0024881
687.00	0.0023091
687.25	0.0016019
687.50	0.0030078
687.75	0.00073279
688.00	0.0016530
688.25	0.0030419
688.50	0.0010395
688.75	0.0010566
689.00	0.0023517
689.25	0.0040644
689.50	0.0010225
689.75	0.0016189
690.00	0.00069870
690.25	0.0023432
690.50	0.0017212
690.75	0.00070723
691.00	0.0035787
691.25	0.0022750
691.50	0.0018490
691.75	0.0024369
692.00	0.0017894
692.25	0.0030078
692.50	0.0015678
692.75	0.0015167
693.00	0.0020109
693.25	0.0013548
693.50	0.0014400
693.75	0.0012866
694.00	0.0020194
694.25	0.00096285
694.50	0.0021558
694.75	0.0017553
695.00	0.0026926
695.25	0.00062202
695.50	0.0010140
695.75	0.0023517
696.00	0.0022495
696.25	0.00040048
696.50	0.0015678
696.75	0.0021132
697.00	0.0034339
697.25	0.0033742
697.50	0.0017553
697.75	0.0031016
698.00	0.0016786
698.25	0.0016701
698.50	0.0022410
698.75	0.00052829
699.00	0.0012100
699.25	0.0020620
699.50	0.0025136
699.75	0.0028289
700.00	0.0010736
