Wavelength (nm)	K09 abs N
220.00	0.12368
220.25	0.12377
220.50	0.12327
220.75	0.12593
221.00	0.12207
221.25	0.12173
221.50	0.12059
221.75	0.11770
222.00	0.11733
222.25	0.11797
222.50	0.11784
222.75	0.11659
223.00	0.11404
223.25	0.11369
223.50	0.11291
223.75	0.10852
224.00	0.11003
224.25	0.11005
224.50	0.10821
224.75	0.10699
225.00	0.10495
225.25	0.10352
225.50	0.10380
225.75	0.10162
226.00	0.10066
226.25	0.10044
226.50	0.099014
226.75	0.096197
227.00	0.096546
227.25	0.093300
227.50	0.092982
227.75	0.090875
228.00	0.090416
228.25	0.088873
228.50	0.087139
228.75	0.085578
229.00	0.085351
229.25	0.083606
229.50	0.082987
229.75	0.080740
230.00	0.080299
230.25	0.079209
230.50	0.077347
230.75	0.076465
231.00	0.075265
231.25	0.074432
231.50	0.072448
231.75	0.072987
232.00	0.070666
232.25	0.069067
232.50	0.067898
232.75	0.067751
233.00	0.066385
233.25	0.065809
233.50	0.064248
233.75	0.062845
234.00	0.062294
234.25	0.061075
234.50	0.060261
234.75	0.060175
235.00	0.058877
235.25	0.056537
235.50	0.054964
235.75	0.055643
236.00	0.055025
236.25	0.053873
236.50	0.053629
236.75	0.050524
237.00	0.050579
237.25	0.050028
237.50	0.049764
237.75	0.050811
238.00	0.048423
238.25	0.047112
238.50	0.046684
238.75	0.047743
239.00	0.046433
239.25	0.047339
239.50	0.045649
239.75	0.044742
240.00	0.044253
240.25	0.044565
240.50	0.044369
240.75	0.043309
241.00	0.042997
241.25	0.043169
241.50	0.042348
241.75	0.041785
242.00	0.042207
242.25	0.042017
242.50	0.041503
242.75	0.041944
243.00	0.041846
243.25	0.041191
243.50	0.040443
243.75	0.040149
244.00	0.040156
244.25	0.040278
244.50	0.040131
244.75	0.040284
245.00	0.039611
245.25	0.040002
245.50	0.039984
245.75	0.038349
246.00	0.038882
246.25	0.038869
246.50	0.039108
246.75	0.038508
247.00	0.039696
247.25	0.037571
247.50	0.038000
247.75	0.037534
248.00	0.038710
248.25	0.039341
248.50	0.038478
248.75	0.038061
249.00	0.039433
249.25	0.039359
249.50	0.038061
249.75	0.038453
250.00	0.038441
250.25	0.037259
250.50	0.037675
250.75	0.037485
251.00	0.038882
251.25	0.038196
251.50	0.037657
251.75	0.037724
252.00	0.037822
252.25	0.038729
252.50	0.037816
252.75	0.037779
253.00	0.038239
253.25	0.038502
253.50	0.038539
253.75	0.037553
254.00	0.038343
254.25	0.037302
254.50	0.037173
254.75	0.037381
255.00	0.038171
255.25	0.037461
255.50	0.037528
255.75	0.037994
256.00	0.038343
256.25	0.038086
256.50	0.038263
256.75	0.038459
257.00	0.038343
257.25	0.037853
257.50	0.037749
257.75	0.036787
258.00	0.038453
258.25	0.037724
258.50	0.038765
258.75	0.038723
259.00	0.038551
259.25	0.037375
259.50	0.036763
259.75	0.037718
260.00	0.038275
260.25	0.038135
260.50	0.038551
260.75	0.038502
261.00	0.037418
261.25	0.037994
261.50	0.037877
261.75	0.038049
262.00	0.037914
262.25	0.037779
262.50	0.037498
262.75	0.037247
263.00	0.037975
263.25	0.036708
263.50	0.037865
263.75	0.037430
264.00	0.037908
264.25	0.037767
264.50	0.037461
264.75	0.038435
265.00	0.037804
265.25	0.038686
265.50	0.037032
265.75	0.037822
266.00	0.038827
266.25	0.037651
266.50	0.037143
266.75	0.036738
267.00	0.036879
267.25	0.037835
267.50	0.036940
267.75	0.037694
268.00	0.037204
268.25	0.036683
268.50	0.037204
268.75	0.037712
269.00	0.037565
269.25	0.037485
269.50	0.037504
269.75	0.036824
270.00	0.037191
270.25	0.037247
270.50	0.037675
270.75	0.038190
271.00	0.037957
271.25	0.037498
271.50	0.037320
271.75	0.037191
272.00	0.037247
272.25	0.038012
272.50	0.038104
272.75	0.037155
273.00	0.037571
273.25	0.036793
273.50	0.037185
273.75	0.038220
274.00	0.037792
274.25	0.038079
274.50	0.036904
274.75	0.037614
275.00	0.036371
275.25	0.036414
275.50	0.036108
275.75	0.036757
276.00	0.036904
276.25	0.036916
276.50	0.037191
276.75	0.037767
277.00	0.036824
277.25	0.036304
277.50	0.036585
277.75	0.035863
278.00	0.038110
278.25	0.036499
278.50	0.036916
278.75	0.036199
279.00	0.034883
279.25	0.035679
279.50	0.035899
279.75	0.036824
280.00	0.035697
280.25	0.036585
280.50	0.034344
280.75	0.035679
281.00	0.035232
281.25	0.035422
281.50	0.034846
281.75	0.036310
282.00	0.036046
282.25	0.035856
282.50	0.035348
282.75	0.035979
283.00	0.034632
283.25	0.034197
283.50	0.034803
283.75	0.035103
284.00	0.033382
284.25	0.033689
284.50	0.034289
284.75	0.034748
285.00	0.033915
285.25	0.034791
285.50	0.032960
285.75	0.033799
286.00	0.033836
286.25	0.033101
286.50	0.033162
286.75	0.032482
287.00	0.034080
287.25	0.034001
287.50	0.034626
287.75	0.033419
288.00	0.032770
288.25	0.033101
288.50	0.032886
288.75	0.032997
289.00	0.032586
289.25	0.031992
289.50	0.032752
289.75	0.032562
290.00	0.033107
290.25	0.032090
290.50	0.032531
290.75	0.032268
291.00	0.032580
291.25	0.031796
291.50	0.031527
291.75	0.031092
292.00	0.032090
292.25	0.032158
292.50	0.031913
292.75	0.032525
293.00	0.030957
293.25	0.030853
293.50	0.032611
293.75	0.032078
294.00	0.031955
294.25	0.031900
294.50	0.030933
294.75	0.031392
295.00	0.032066
295.25	0.031808
295.50	0.031588
295.75	0.030626
296.00	0.030088
296.25	0.030412
296.50	0.030994
296.75	0.031815
297.00	0.031355
297.25	0.029800
297.50	0.029524
297.75	0.031478
298.00	0.030418
298.25	0.031368
298.50	0.031514
298.75	0.028655
299.00	0.030069
299.25	0.030198
299.50	0.030363
299.75	0.030259
300.00	0.029641
300.25	0.030210
300.50	0.030400
300.75	0.030896
301.00	0.031018
301.25	0.029690
301.50	0.029200
301.75	0.029206
302.00	0.029481
302.25	0.029616
302.50	0.029396
302.75	0.030333
303.00	0.029763
303.25	0.029347
303.50	0.028336
303.75	0.029494
304.00	0.029285
304.25	0.030057
304.50	0.029034
304.75	0.030590
305.00	0.029255
305.25	0.029708
305.50	0.030198
305.75	0.030590
306.00	0.030308
306.25	0.030773
306.50	0.031025
306.75	0.031123
307.00	0.030265
307.25	0.030878
307.50	0.029316
307.75	0.031025
308.00	0.030871
308.25	0.030369
308.50	0.030908
308.75	0.030026
309.00	0.029218
309.25	0.029426
309.50	0.030161
309.75	0.031294
310.00	0.033897
310.25	0.033309
310.50	0.031245
310.75	0.031833
311.00	0.028710
311.25	0.031257
311.50	0.030198
311.75	0.034540
312.00	0.035667
312.25	0.033052
312.50	0.028324
312.75	0.029126
313.00	0.032586
313.25	0.029824
313.50	0.030541
313.75	0.032899
314.00	0.035024
314.25	0.034601
314.50	0.032758
314.75	0.030333
315.00	0.031165
315.25	0.032984
315.50	0.034558
315.75	0.033444
316.00	0.033401
316.25	0.033480
316.50	0.034362
316.75	0.031221
317.00	0.035556
317.25	0.038214
317.50	0.036640
317.75	0.038625
318.00	0.036910
318.25	0.036775
318.50	0.035697
318.75	0.035226
319.00	0.037945
319.25	0.038441
319.50	0.038869
319.75	0.036646
320.00	0.036291
320.25	0.039384
320.50	0.039023
320.75	0.039476
321.00	0.040376
321.25	0.043407
321.50	0.043009
321.75	0.039280
322.00	0.039170
322.25	0.043726
322.50	0.044375
322.75	0.039170
323.00	0.044185
323.25	0.040841
323.50	0.047884
323.75	0.044363
324.00	0.043885
324.25	0.043665
324.50	0.045814
324.75	0.043891
325.00	0.043879
325.25	0.042820
325.50	0.051320
325.75	0.045802
326.00	0.047805
326.25	0.047180
326.50	0.050634
326.75	0.051528
327.00	0.048919
327.25	0.047235
327.50	0.048962
327.75	0.047339
328.00	0.048772
328.25	0.052244
328.50	0.047835
328.75	0.047970
329.00	0.048117
329.25	0.049342
329.50	0.055313
329.75	0.050603
330.00	0.051295
330.25	0.052208
330.50	0.056317
330.75	0.053873
331.00	0.057970
331.25	0.054621
331.50	0.057021
331.75	0.057621
332.00	0.058534
332.25	0.061571
332.50	0.061198
332.75	0.060726
333.00	0.063954
333.25	0.064407
333.50	0.067549
333.75	0.065975
334.00	0.066954
334.25	0.070243
334.50	0.070427
334.75	0.068871
335.00	0.072925
335.25	0.074554
335.50	0.076637
335.75	0.079674
336.00	0.079203
336.25	0.082161
336.50	0.080636
336.75	0.084157
337.00	0.085296
337.25	0.085927
337.50	0.086815
337.75	0.085976
338.00	0.085094
338.25	0.084016
338.50	0.083287
338.75	0.085608
339.00	0.081101
339.25	0.079662
339.50	0.080770
339.75	0.075210
340.00	0.074689
340.25	0.072319
340.50	0.070702
340.75	0.067457
341.00	0.067763
341.25	0.063317
341.50	0.061088
341.75	0.058013
342.00	0.058460
342.25	0.056574
342.50	0.055576
342.75	0.052869
343.00	0.052306
343.25	0.047504
343.50	0.047982
343.75	0.046684
344.00	0.043622
344.25	0.043959
344.50	0.041638
344.75	0.042673
345.00	0.040094
345.25	0.038772
345.50	0.033615
345.75	0.036420
346.00	0.036940
346.25	0.034950
346.50	0.035330
346.75	0.031876
347.00	0.032880
347.25	0.034332
347.50	0.028012
347.75	0.027920
348.00	0.031919
348.25	0.028728
348.50	0.026572
348.75	0.026627
349.00	0.028361
349.25	0.027307
349.50	0.027791
349.75	0.025886
350.00	0.026793
350.25	0.023878
350.50	0.026805
350.75	0.025231
351.00	0.025788
351.25	0.026309
351.50	0.024000
351.75	0.025550
352.00	0.026162
352.25	0.023039
352.50	0.025954
352.75	0.026793
353.00	0.023559
353.25	0.022353
353.50	0.023137
353.75	0.022524
354.00	0.023572
354.25	0.025170
354.50	0.025666
354.75	0.022947
355.00	0.022984
355.25	0.022530
355.50	0.024686
355.75	0.022561
356.00	0.022641
356.25	0.021783
356.50	0.023719
356.75	0.024282
357.00	0.022696
357.25	0.023137
357.50	0.022151
357.75	0.023437
358.00	0.022984
358.25	0.023425
358.50	0.023749
358.75	0.024870
359.00	0.021563
359.25	0.023376
359.50	0.024141
359.75	0.023706
360.00	0.023737
360.25	0.024221
360.50	0.024141
360.75	0.023951
361.00	0.023253
361.25	0.021716
361.50	0.024123
361.75	0.024845
362.00	0.023235
362.25	0.026260
362.50	0.026236
362.75	0.023039
363.00	0.024061
363.25	0.023406
363.50	0.023284
363.75	0.022506
364.00	0.026597
364.25	0.025684
364.50	0.023988
364.75	0.022200
365.00	0.025641
365.25	0.023467
365.50	0.023088
365.75	0.024435
366.00	0.023841
366.25	0.024398
366.50	0.025880
366.75	0.022188
367.00	0.023051
367.25	0.026015
367.50	0.023927
367.75	0.024453
368.00	0.024233
368.25	0.025127
368.50	0.024000
368.75	0.023939
369.00	0.025256
369.25	0.025011
369.50	0.023988
369.75	0.023284
370.00	0.025029
370.25	0.025176
370.50	0.024809
370.75	0.025684
371.00	0.025225
371.25	0.024019
371.50	0.026695
371.75	0.025360
372.00	0.025501
372.25	0.025727
372.50	0.024417
372.75	0.025580
373.00	0.025335
373.25	0.026180
373.50	0.024411
373.75	0.026695
374.00	0.026915
374.25	0.026138
374.50	0.025666
374.75	0.028275
375.00	0.025997
375.25	0.027381
375.50	0.025452
375.75	0.029187
376.00	0.026854
376.25	0.028575
376.50	0.027148
376.75	0.026285
377.00	0.028379
377.25	0.026768
377.50	0.028061
377.75	0.027963
378.00	0.027754
378.25	0.027730
378.50	0.025433
378.75	0.028612
379.00	0.027491
379.25	0.027552
379.50	0.027797
379.75	0.029040
380.00	0.028073
380.25	0.028526
380.50	0.027993
380.75	0.028544
381.00	0.027938
381.25	0.027987
381.50	0.026266
381.75	0.028397
382.00	0.027797
382.25	0.029763
382.50	0.027124
382.75	0.027515
383.00	0.026695
383.25	0.026928
383.50	0.026315
383.75	0.026450
384.00	0.026781
384.25	0.026964
384.50	0.025788
384.75	0.025684
385.00	0.024631
385.25	0.026928
385.50	0.025170
385.75	0.026928
386.00	0.024631
386.25	0.023982
386.50	0.023725
386.75	0.022249
387.00	0.024637
387.25	0.022775
387.50	0.023327
387.75	0.021048
388.00	0.023284
388.25	0.024000
388.50	0.022310
388.75	0.019475
389.00	0.020773
389.25	0.021698
389.50	0.020222
389.75	0.018868
390.00	0.019634
390.25	0.019964
390.50	0.020901
390.75	0.020577
391.00	0.019181
391.25	0.019083
391.50	0.018042
391.75	0.017252
392.00	0.018948
392.25	0.017729
392.50	0.017821
392.75	0.016970
393.00	0.017441
393.25	0.016780
393.50	0.015035
393.75	0.015965
394.00	0.014986
394.25	0.015506
394.50	0.015151
394.75	0.013387
395.00	0.013638
395.25	0.015708
395.50	0.015714
395.75	0.016045
396.00	0.014373
396.25	0.012738
396.50	0.012548
396.75	0.013001
397.00	0.015188
397.25	0.015157
397.50	0.014073
397.75	0.014833
398.00	0.012885
398.25	0.012732
398.50	0.011348
398.75	0.014030
399.00	0.013791
399.25	0.012769
399.50	0.011593
399.75	0.013106
400.00	0.012744
400.25	0.011850
400.50	0.013320
400.75	0.012916
401.00	0.011470
401.25	0.011036
401.50	0.0092963
401.75	0.010644
402.00	0.011617
402.25	0.011807
402.50	0.011152
402.75	0.012542
403.00	0.010827
403.25	0.011146
403.50	0.010931
403.75	0.010852
404.00	0.010901
404.25	0.010607
404.50	0.010699
404.75	0.010233
405.00	0.012242
405.25	0.010429
405.50	0.010729
405.75	0.011568
406.00	0.010729
406.25	0.010454
406.50	0.010337
406.75	0.011654
407.00	0.010472
407.25	0.012413
407.50	0.010772
407.75	0.011636
408.00	0.011048
408.25	0.013032
408.50	0.011066
408.75	0.010662
409.00	0.0099271
409.25	0.0097189
409.50	0.011654
409.75	0.0088493
410.00	0.0099639
410.25	0.0098108
410.50	0.0098475
410.75	0.011023
411.00	0.010160
411.25	0.011526
411.50	0.011819
411.75	0.010184
412.00	0.010956
412.25	0.0090881
412.50	0.010631
412.75	0.0097005
413.00	0.010693
413.25	0.011434
413.50	0.011581
413.75	0.0091984
414.00	0.0097128
414.25	0.0094801
414.50	0.0093576
414.75	0.0097618
415.00	0.0098108
415.25	0.0095597
415.50	0.0095781
415.75	0.010233
416.00	0.010062
416.25	0.010037
416.50	0.0088248
416.75	0.0095658
417.00	0.0099761
417.25	0.0092412
417.50	0.010264
417.75	0.011054
418.00	0.0090698
418.25	0.0092596
418.50	0.010178
418.75	0.0084084
419.00	0.0092902
419.25	0.0099822
419.50	0.0085737
419.75	0.0099455
420.00	0.0097005
420.25	0.010221
420.50	0.0099088
420.75	0.0094984
421.00	0.010374
421.25	0.0096270
421.50	0.0089105
421.75	0.0094127
422.00	0.010760
422.25	0.010068
422.50	0.010252
422.75	0.011011
423.00	0.0092657
423.25	0.010558
423.50	0.0099271
423.75	0.010509
424.00	0.010662
424.25	0.0096883
424.50	0.010564
424.75	0.010399
425.00	0.010442
425.25	0.011268
425.50	0.0096699
425.75	0.0091494
426.00	0.010099
426.25	0.010729
426.50	0.0098169
426.75	0.010356
427.00	0.011054
427.25	0.0096454
427.50	0.011029
427.75	0.010239
428.00	0.0084696
428.25	0.0095964
428.50	0.0099884
428.75	0.0094005
429.00	0.011225
429.25	0.0098169
429.50	0.0095842
429.75	0.0080164
430.00	0.011189
430.25	0.010380
430.50	0.0096577
430.75	0.0088309
431.00	0.0098353
431.25	0.0087084
431.50	0.0096760
431.75	0.0092045
432.00	0.0093943
432.25	0.0087084
432.50	0.010203
432.75	0.0088922
433.00	0.0088860
433.25	0.010013
433.50	0.0083287
433.75	0.0090330
434.00	0.0091555
434.25	0.0098536
434.50	0.0089105
434.75	0.0078939
435.00	0.0099761
435.25	0.0082675
435.50	0.0082920
435.75	0.0086349
436.00	0.0081818
436.25	0.010399
436.50	0.0088615
436.75	0.0091677
437.00	0.0092474
437.25	0.0086349
437.50	0.0089350
437.75	0.0082859
438.00	0.0093086
438.25	0.0077041
438.50	0.0072754
438.75	0.0064609
439.00	0.0088309
439.25	0.0077837
439.50	0.0075387
439.75	0.0096270
440.00	0.0082430
440.25	0.0071407
440.50	0.0075694
440.75	0.0094066
441.00	0.0073305
441.25	0.0071835
441.50	0.0083839
441.75	0.0067242
442.00	0.0073244
442.25	0.0086533
442.50	0.0080899
442.75	0.0077286
443.00	0.0065650
443.25	0.0067487
443.50	0.0059710
443.75	0.0071713
444.00	0.0078572
444.25	0.0064548
444.50	0.0074959
444.75	0.0073673
445.00	0.0066262
445.25	0.0080593
445.50	0.0072754
445.75	0.0066507
446.00	0.0055790
446.25	0.0075510
446.50	0.0069202
446.75	0.0071774
447.00	0.0062894
447.25	0.0070059
447.50	0.0073305
447.75	0.0069631
448.00	0.0072448
448.25	0.0069018
448.50	0.0074959
448.75	0.0067977
449.00	0.0074346
449.25	0.0065528
449.50	0.0076673
449.75	0.0073979
450.00	0.0077653
450.25	0.0072509
450.50	0.0077714
450.75	0.0064548
451.00	0.0076061
451.25	0.0077898
451.50	0.0066752
451.75	0.0063874
452.00	0.0065895
452.25	0.0067977
452.50	0.0071284
452.75	0.0072509
453.00	0.0059771
453.25	0.0050891
453.50	0.0063384
453.75	0.0058975
454.00	0.0067671
454.25	0.0075877
454.50	0.0080287
454.75	0.0071529
455.00	0.0076122
455.25	0.0069753
455.50	0.0065895
455.75	0.0079123
456.00	0.0067610
456.25	0.0065466
456.50	0.0070794
456.75	0.0071897
457.00	0.0081328
457.25	0.0063323
457.50	0.0067549
457.75	0.0069876
458.00	0.0065405
458.25	0.0070243
458.50	0.0068038
458.75	0.0069447
459.00	0.0071223
459.25	0.0070978
459.50	0.0064364
459.75	0.0075142
460.00	0.0064609
460.25	0.0062221
460.50	0.0061608
460.75	0.0072815
461.00	0.0064242
461.25	0.0064793
461.50	0.0061976
461.75	0.0062404
462.00	0.0060567
462.25	0.0069876
462.50	0.0068835
462.75	0.0071100
463.00	0.0064425
463.25	0.0063997
463.50	0.0079184
463.75	0.0073060
464.00	0.0068038
464.25	0.0068345
464.50	0.0070856
464.75	0.0074469
465.00	0.0078204
465.25	0.0063813
465.50	0.0072693
465.75	0.0062159
466.00	0.0066752
466.25	0.0078388
466.50	0.0058852
466.75	0.0066385
467.00	0.0066752
467.25	0.0054198
467.50	0.0096087
467.75	0.0064242
468.00	0.0071774
468.25	0.0080042
468.50	0.0055239
468.75	0.0055545
469.00	0.0060383
469.25	0.0075816
469.50	0.0076183
469.75	0.0065405
470.00	0.0070794
470.25	0.0071897
470.50	0.0064793
470.75	0.0078388
471.00	0.0073183
471.25	0.0077286
471.50	0.0064180
471.75	0.0089718
472.00	0.0077470
472.25	0.0064793
472.50	0.0061731
472.75	0.0075265
473.00	0.0077898
473.25	0.0082246
473.50	0.0067365
473.75	0.0072754
474.00	0.0087207
474.25	0.0084757
474.50	0.0072325
474.75	0.0065834
475.00	0.0077102
475.25	0.0067916
475.50	0.0079368
475.75	0.0084635
476.00	0.0072325
476.25	0.0075571
476.50	0.0076245
476.75	0.0075204
477.00	0.0065283
477.25	0.0074836
477.50	0.0076306
477.75	0.0083104
478.00	0.0072938
478.25	0.0089595
478.50	0.0087268
478.75	0.0068161
479.00	0.0077959
479.25	0.0066385
479.50	0.0075449
479.75	0.0082063
480.00	0.0077959
480.25	0.0079368
480.50	0.0082859
480.75	0.0079246
481.00	0.0079980
481.25	0.0083471
481.50	0.0075571
481.75	0.0085615
482.00	0.0073428
482.25	0.0090330
482.50	0.0078939
482.75	0.0081573
483.00	0.0086104
483.25	0.0072815
483.50	0.0090881
483.75	0.0084145
484.00	0.0069753
484.25	0.0083532
484.50	0.0084022
484.75	0.0081205
485.00	0.0081573
485.25	0.0084880
485.50	0.0083900
485.75	0.0081879
486.00	0.0083532
486.25	0.0090085
486.50	0.0087574
486.75	0.0082859
487.00	0.010546
487.25	0.0079797
487.50	0.0076367
487.75	0.0092657
488.00	0.0077286
488.25	0.0091984
488.50	0.0085370
488.75	0.0091677
489.00	0.0082308
489.25	0.010374
489.50	0.010546
489.75	0.0098598
490.00	0.0073060
490.25	0.0080470
490.50	0.0092718
490.75	0.0083042
491.00	0.0088615
491.25	0.0089289
491.50	0.0088370
491.75	0.0096209
492.00	0.0096148
492.25	0.0099761
492.50	0.0084635
492.75	0.0098046
493.00	0.0092718
493.25	0.010001
493.50	0.0097312
493.75	0.0091126
494.00	0.0092963
494.25	0.0099455
494.50	0.0098965
494.75	0.010533
495.00	0.0091800
495.25	0.0097924
495.50	0.010282
495.75	0.010356
496.00	0.011109
496.25	0.010901
496.50	0.0099761
496.75	0.010264
497.00	0.010105
497.25	0.0092535
497.50	0.011421
497.75	0.011274
498.00	0.010417
498.25	0.010760
498.50	0.010380
498.75	0.0095597
499.00	0.010846
499.25	0.012040
499.50	0.011330
499.75	0.012101
500.00	0.012095
500.25	0.010913
500.50	0.010956
500.75	0.010239
501.00	0.011501
501.25	0.010864
501.50	0.011764
501.75	0.012291
502.00	0.011464
502.25	0.011611
502.50	0.012922
502.75	0.011991
503.00	0.011930
503.25	0.012799
503.50	0.012077
503.75	0.012040
504.00	0.012420
504.25	0.013093
504.50	0.010944
504.75	0.012609
505.00	0.013608
505.25	0.012805
505.50	0.011048
505.75	0.013130
506.00	0.011966
506.25	0.012395
506.50	0.012677
506.75	0.012383
507.00	0.012812
507.25	0.012211
507.50	0.012732
507.75	0.012781
508.00	0.012236
508.25	0.013522
508.50	0.013473
508.75	0.014343
509.00	0.012603
509.25	0.013497
509.50	0.013259
509.75	0.013155
510.00	0.014257
510.25	0.013283
510.50	0.014502
510.75	0.014618
511.00	0.015708
511.25	0.015414
511.50	0.013179
511.75	0.014777
512.00	0.014257
512.25	0.016100
512.50	0.015488
512.75	0.014367
513.00	0.015390
513.25	0.015231
513.50	0.014073
513.75	0.015972
514.00	0.015065
514.25	0.017252
514.50	0.015629
514.75	0.014416
515.00	0.015874
515.25	0.016406
515.50	0.016615
515.75	0.015004
516.00	0.015849
516.25	0.016455
516.50	0.015806
516.75	0.015794
517.00	0.016333
517.25	0.017233
517.50	0.017515
517.75	0.017748
518.00	0.017147
518.25	0.015414
518.50	0.017068
518.75	0.019021
519.00	0.017864
519.25	0.018391
519.50	0.016725
519.75	0.020007
520.00	0.018691
520.25	0.019585
520.50	0.018544
520.75	0.017239
521.00	0.018642
521.25	0.018930
521.50	0.019015
521.75	0.017870
522.00	0.018740
522.25	0.020650
522.50	0.019664
522.75	0.018305
523.00	0.020056
523.25	0.018568
523.50	0.020742
523.75	0.020050
524.00	0.018752
524.25	0.018893
524.50	0.019187
524.75	0.019432
525.00	0.020197
525.25	0.020657
525.50	0.019456
525.75	0.020944
526.00	0.019162
526.25	0.020252
526.50	0.020675
526.75	0.021973
527.00	0.021251
527.25	0.021600
527.50	0.021134
527.75	0.021514
528.00	0.021398
528.25	0.021557
528.50	0.021385
528.75	0.021171
529.00	0.021055
529.25	0.021367
529.50	0.021600
529.75	0.021704
530.00	0.024362
530.25	0.022512
530.50	0.022041
530.75	0.023835
531.00	0.021979
531.25	0.023284
531.50	0.022200
531.75	0.022935
532.00	0.022726
532.25	0.024521
532.50	0.023651
532.75	0.023994
533.00	0.023498
533.25	0.024784
533.50	0.023400
533.75	0.024754
534.00	0.023296
534.25	0.025090
534.50	0.023510
534.75	0.024735
535.00	0.025850
535.25	0.025807
535.50	0.023970
535.75	0.025629
536.00	0.026285
536.25	0.026689
536.50	0.026205
536.75	0.025684
537.00	0.026744
537.25	0.026150
537.50	0.026040
537.75	0.026725
538.00	0.026928
538.25	0.029175
538.50	0.026793
538.75	0.028134
539.00	0.026793
539.25	0.027142
539.50	0.028367
539.75	0.027393
540.00	0.029224
540.25	0.028195
540.50	0.028348
540.75	0.029628
541.00	0.030020
541.25	0.028912
541.50	0.030767
541.75	0.031527
542.00	0.030271
542.25	0.031465
542.50	0.030700
542.75	0.030302
543.00	0.029469
543.25	0.029524
543.50	0.032513
543.75	0.031741
544.00	0.030908
544.25	0.032562
544.50	0.032133
544.75	0.033297
545.00	0.031643
545.25	0.033548
545.50	0.032715
545.75	0.034148
546.00	0.034056
546.25	0.033241
546.50	0.032862
546.75	0.034001
547.00	0.035336
547.25	0.035611
547.50	0.034711
547.75	0.033787
548.00	0.036395
548.25	0.037381
548.50	0.037406
548.75	0.036353
549.00	0.036310
549.25	0.036885
549.50	0.036542
549.75	0.037302
550.00	0.038416
550.25	0.038778
550.50	0.039598
550.75	0.038453
551.00	0.037657
551.25	0.039923
551.50	0.038625
551.75	0.039941
552.00	0.039292
552.25	0.038392
552.50	0.040988
552.75	0.042201
553.00	0.043218
553.25	0.041778
553.50	0.041638
553.75	0.041699
554.00	0.042483
554.25	0.042360
554.50	0.044185
554.75	0.042954
555.00	0.043897
555.25	0.043720
555.50	0.045049
555.75	0.045330
556.00	0.046188
556.25	0.045906
556.50	0.046476
556.75	0.046329
557.00	0.047884
557.25	0.045839
557.50	0.047578
557.75	0.047890
558.00	0.048858
558.25	0.049078
558.50	0.049874
558.75	0.048772
559.00	0.050634
559.25	0.049868
559.50	0.050021
559.75	0.050750
560.00	0.051479
560.25	0.050756
560.50	0.053537
560.75	0.050426
561.00	0.053028
561.25	0.052189
561.50	0.053426
561.75	0.053665
562.00	0.053402
562.25	0.054321
562.50	0.056011
562.75	0.054455
563.00	0.056323
563.25	0.054076
563.50	0.055839
563.75	0.055815
564.00	0.056164
564.25	0.056299
564.50	0.056348
564.75	0.058142
565.00	0.058387
565.25	0.058485
565.50	0.058540
565.75	0.059973
566.00	0.059250
566.25	0.059544
566.50	0.060206
566.75	0.060022
567.00	0.059306
567.25	0.060696
567.50	0.061082
567.75	0.061535
568.00	0.061878
568.25	0.063378
568.50	0.063311
568.75	0.063127
569.00	0.064309
569.25	0.064872
569.50	0.065448
569.75	0.064266
570.00	0.064989
570.25	0.064646
570.50	0.066826
570.75	0.065956
571.00	0.067340
571.25	0.066654
571.50	0.068528
571.75	0.068185
572.00	0.068032
572.25	0.069337
572.50	0.068737
572.75	0.070592
573.00	0.069667
573.25	0.068528
573.50	0.070347
573.75	0.071009
574.00	0.071149
574.25	0.072950
574.50	0.072123
574.75	0.072521
575.00	0.072191
575.25	0.073850
575.50	0.071278
575.75	0.072956
576.00	0.073764
576.25	0.075510
576.50	0.074450
576.75	0.075008
577.00	0.074407
577.25	0.076631
577.50	0.078817
577.75	0.077231
578.00	0.075669
578.25	0.077812
578.50	0.076986
578.75	0.080587
579.00	0.078578
579.25	0.079227
579.50	0.079203
579.75	0.079723
580.00	0.081021
580.25	0.079466
580.50	0.080421
580.75	0.082914
581.00	0.081168
581.25	0.081836
581.50	0.082944
581.75	0.084206
582.00	0.084984
582.25	0.084745
582.50	0.085272
582.75	0.085198
583.00	0.085541
583.25	0.085915
583.50	0.087501
583.75	0.086098
584.00	0.086607
584.25	0.088621
584.50	0.088426
584.75	0.085933
585.00	0.089399
585.25	0.089283
585.50	0.091892
585.75	0.091457
586.00	0.089320
586.25	0.091812
586.50	0.091873
586.75	0.092774
587.00	0.092486
587.25	0.093962
587.50	0.093882
587.75	0.094458
588.00	0.096699
588.25	0.095897
588.50	0.096289
588.75	0.096907
589.00	0.097036
589.25	0.099314
589.50	0.098408
589.75	0.10112
590.00	0.099761
590.25	0.10138
590.50	0.10255
590.75	0.10134
591.00	0.10202
591.25	0.10246
591.50	0.10348
591.75	0.10335
592.00	0.10617
592.25	0.10626
592.50	0.10525
592.75	0.10633
593.00	0.10888
593.25	0.10961
593.50	0.10862
593.75	0.10995
594.00	0.11033
594.25	0.11184
594.50	0.11235
594.75	0.11387
595.00	0.11510
595.25	0.11521
595.50	0.11549
595.75	0.11661
596.00	0.11710
596.25	0.11744
596.50	0.11875
596.75	0.12041
597.00	0.11970
597.25	0.12033
597.50	0.12251
597.75	0.12322
598.00	0.12252
598.25	0.12559
598.50	0.12681
598.75	0.12563
599.00	0.12614
599.25	0.12911
599.50	0.12850
599.75	0.13026
600.00	0.13086
600.25	0.13182
600.50	0.13218
600.75	0.13403
601.00	0.13364
601.25	0.13509
601.50	0.13729
601.75	0.13660
602.00	0.13824
602.25	0.13853
602.50	0.14033
602.75	0.14182
603.00	0.14267
603.25	0.14376
603.50	0.14300
603.75	0.14515
604.00	0.14353
604.25	0.14836
604.50	0.14844
604.75	0.14946
605.00	0.15050
605.25	0.15185
605.50	0.15128
605.75	0.15263
606.00	0.15388
606.25	0.15535
606.50	0.15706
606.75	0.15797
607.00	0.15823
607.25	0.16024
607.50	0.16180
607.75	0.16203
608.00	0.16237
608.25	0.16337
608.50	0.16561
608.75	0.16664
609.00	0.16859
609.25	0.16916
609.50	0.16943
609.75	0.17059
610.00	0.17206
610.25	0.17402
610.50	0.17564
610.75	0.17749
611.00	0.17773
611.25	0.17945
611.50	0.17938
611.75	0.18124
612.00	0.18172
612.25	0.18485
612.50	0.18584
612.75	0.18635
613.00	0.18689
613.25	0.18922
613.50	0.19050
613.75	0.19023
614.00	0.19187
614.25	0.19241
614.50	0.19489
614.75	0.19682
615.00	0.19800
615.25	0.19787
615.50	0.19950
615.75	0.19970
616.00	0.20004
616.25	0.20539
616.50	0.20430
616.75	0.20656
617.00	0.20710
617.25	0.20820
617.50	0.21041
617.75	0.21115
618.00	0.21295
618.25	0.21375
618.50	0.21460
618.75	0.21651
619.00	0.21814
619.25	0.21870
619.50	0.21973
619.75	0.22305
620.00	0.22316
620.25	0.22465
620.50	0.22590
620.75	0.22710
621.00	0.22925
621.25	0.23014
621.50	0.23104
621.75	0.23202
622.00	0.23383
622.25	0.23529
622.50	0.23584
622.75	0.23761
623.00	0.23904
623.25	0.23975
623.50	0.24186
623.75	0.24218
624.00	0.24387
624.25	0.24423
624.50	0.24621
624.75	0.24785
625.00	0.24609
625.25	0.24788
625.50	0.25058
625.75	0.25203
626.00	0.25247
626.25	0.25269
626.50	0.25446
626.75	0.25555
627.00	0.25844
627.25	0.25781
627.50	0.25902
627.75	0.26065
628.00	0.26086
628.25	0.26134
628.50	0.26119
628.75	0.26419
629.00	0.26507
629.25	0.26721
629.50	0.26706
629.75	0.26856
630.00	0.26893
630.25	0.27009
630.50	0.27223
630.75	0.27154
631.00	0.27171
631.25	0.27324
631.50	0.27356
631.75	0.27522
632.00	0.27484
632.25	0.27670
632.50	0.27756
632.75	0.27770
633.00	0.27877
633.25	0.28032
633.50	0.27952
633.75	0.28083
634.00	0.28163
634.25	0.28223
634.50	0.28481
634.75	0.28495
635.00	0.28629
635.25	0.28693
635.50	0.28624
635.75	0.28794
636.00	0.28997
636.25	0.29087
636.50	0.28877
636.75	0.29073
637.00	0.29176
637.25	0.29241
637.50	0.29208
637.75	0.29244
638.00	0.29520
638.25	0.29533
638.50	0.29535
638.75	0.29513
639.00	0.29661
639.25	0.29724
639.50	0.29950
639.75	0.29831
640.00	0.29808
640.25	0.29963
640.50	0.30047
640.75	0.30248
641.00	0.30150
641.25	0.30221
641.50	0.30289
641.75	0.30399
642.00	0.30568
642.25	0.30426
642.50	0.30654
642.75	0.30705
643.00	0.30754
643.25	0.30947
643.50	0.30749
643.75	0.31060
644.00	0.31091
644.25	0.31277
644.50	0.31220
644.75	0.31377
645.00	0.31301
645.25	0.31655
645.50	0.31503
645.75	0.31758
646.00	0.31953
646.25	0.31999
646.50	0.31985
646.75	0.32282
647.00	0.32357
647.25	0.32358
647.50	0.32586
647.75	0.32558
648.00	0.32793
648.25	0.32856
648.50	0.33017
648.75	0.33273
649.00	0.33481
649.25	0.33606
649.50	0.33674
649.75	0.33828
650.00	0.34032
650.25	0.34167
650.50	0.34434
650.75	0.34572
651.00	0.34707
651.25	0.35057
651.50	0.35082
651.75	0.35240
652.00	0.35401
652.25	0.35828
652.50	0.36022
652.75	0.36246
653.00	0.36384
653.25	0.36690
653.50	0.36727
653.75	0.37117
654.00	0.37255
654.25	0.37299
654.50	0.37694
654.75	0.37786
655.00	0.38274
655.25	0.38563
655.50	0.38699
655.75	0.39227
656.00	0.39369
656.25	0.39650
656.50	0.40106
656.75	0.40384
657.00	0.40681
657.25	0.41131
657.50	0.41499
657.75	0.41717
658.00	0.42176
658.25	0.42552
658.50	0.42745
658.75	0.43420
659.00	0.43812
659.25	0.44156
659.50	0.44569
659.75	0.44847
660.00	0.45350
660.25	0.45875
660.50	0.46223
660.75	0.46891
661.00	0.47098
661.25	0.47798
661.50	0.48258
661.75	0.48681
662.00	0.49290
662.25	0.49786
662.50	0.50233
662.75	0.51008
663.00	0.51287
663.25	0.51798
663.50	0.52323
663.75	0.52924
664.00	0.53658
664.25	0.54009
664.50	0.54613
664.75	0.55187
665.00	0.55656
665.25	0.56385
665.50	0.57006
665.75	0.57301
666.00	0.58110
666.25	0.58557
666.50	0.59274
666.75	0.59795
667.00	0.60518
667.25	0.61149
667.50	0.61737
667.75	0.62374
668.00	0.62906
668.25	0.63601
668.50	0.64143
668.75	0.64903
669.00	0.65487
669.25	0.66159
669.50	0.66866
669.75	0.67334
670.00	0.68053
670.25	0.68655
670.50	0.69437
670.75	0.70013
671.00	0.70738
671.25	0.71428
671.50	0.71977
671.75	0.72887
672.00	0.73233
672.25	0.74104
672.50	0.74878
672.75	0.75566
673.00	0.76310
673.25	0.76719
673.50	0.77617
673.75	0.78255
674.00	0.78939
674.25	0.79568
674.50	0.80530
674.75	0.81283
675.00	0.82166
675.25	0.82649
675.50	0.83600
675.75	0.84115
676.00	0.84607
676.25	0.85272
676.50	0.85803
676.75	0.86492
677.00	0.87002
677.25	0.87741
677.50	0.88153
677.75	0.88944
678.00	0.89478
678.25	0.90064
678.50	0.90325
678.75	0.91054
679.00	0.91441
679.25	0.91695
679.50	0.92244
679.75	0.92857
680.00	0.93201
680.25	0.93671
680.50	0.94180
680.75	0.94777
681.00	0.94751
681.25	0.95197
681.50	0.95652
681.75	0.96008
682.00	0.96367
682.25	0.96640
682.50	0.97254
682.75	0.97473
683.00	0.97498
683.25	0.98033
683.50	0.97989
683.75	0.98577
684.00	0.98769
684.25	0.98846
684.50	0.98942
684.75	0.99147
685.00	0.99087
685.25	0.99590
685.50	0.99497
685.75	0.99470
686.00	0.99737
686.25	0.99374
686.50	0.99725
686.75	0.99754
687.00	0.99974
687.25	0.99918
687.50	1.0000
687.75	0.99552
688.00	0.99564
688.25	0.99500
688.50	0.99711
688.75	0.99254
689.00	0.99160
689.25	0.99022
689.50	0.98959
689.75	0.98835
690.00	0.98678
690.25	0.98268
690.50	0.98124
690.75	0.97987
691.00	0.97803
691.25	0.97312
691.50	0.96652
691.75	0.96500
692.00	0.96253
692.25	0.95939
692.50	0.95194
692.75	0.95008
693.00	0.94513
693.25	0.94083
693.50	0.93403
693.75	0.93513
694.00	0.92932
694.25	0.92526
694.50	0.92174
694.75	0.91316
695.00	0.90777
695.25	0.90462
695.50	0.89618
695.75	0.89123
696.00	0.88293
696.25	0.87915
696.50	0.87249
696.75	0.86346
697.00	0.85910
697.25	0.85047
697.50	0.84438
697.75	0.83795
698.00	0.82799
698.25	0.82084
698.50	0.81458
698.75	0.80540
699.00	0.79723
699.25	0.78795
699.50	0.78114
699.75	0.77267
700.00	0.76607
700.25	0.75596
700.50	0.74599
700.75	0.73937
701.00	0.72958
701.25	0.72137
701.50	0.71007
701.75	0.70325
702.00	0.69585
702.25	0.68444
702.50	0.67731
702.75	0.66760
703.00	0.65894
703.25	0.65109
703.50	0.64191
703.75	0.63353
704.00	0.62368
704.25	0.61540
704.50	0.60717
704.75	0.59769
705.00	0.58833
705.25	0.57964
705.50	0.57052
705.75	0.56299
706.00	0.55474
706.25	0.54538
706.50	0.53717
706.75	0.52837
707.00	0.51992
707.25	0.51248
707.50	0.50514
707.75	0.49741
708.00	0.48809
708.25	0.47837
708.50	0.47206
708.75	0.46311
709.00	0.45564
709.25	0.44606
709.50	0.43994
709.75	0.43475
710.00	0.42482
710.25	0.41567
710.50	0.40868
710.75	0.40162
711.00	0.39524
711.25	0.38582
711.50	0.37906
711.75	0.37212
712.00	0.36563
712.25	0.35828
712.50	0.34995
712.75	0.34357
713.00	0.33951
713.25	0.33046
713.50	0.32564
713.75	0.31965
714.00	0.31232
714.25	0.30738
714.50	0.30108
714.75	0.29294
715.00	0.28354
715.25	0.27797
715.50	0.27082
715.75	0.26661
716.00	0.25924
716.25	0.25408
716.50	0.24953
716.75	0.24482
717.00	0.23850
717.25	0.23407
717.50	0.22951
717.75	0.22375
718.00	0.22006
718.25	0.21583
718.50	0.21162
718.75	0.20743
719.00	0.20383
719.25	0.19844
719.50	0.19484
719.75	0.19182
720.00	0.18710
720.25	0.18410
720.50	0.17862
720.75	0.17558
721.00	0.17280
721.25	0.16890
721.50	0.16575
721.75	0.16174
722.00	0.15740
722.25	0.15542
722.50	0.15187
722.75	0.14807
723.00	0.14443
723.25	0.14214
723.50	0.14086
723.75	0.13824
724.00	0.13420
724.25	0.13153
724.50	0.13025
724.75	0.12714
725.00	0.12243
725.25	0.11936
725.50	0.11844
725.75	0.11538
726.00	0.11480
726.25	0.11131
726.50	0.10815
726.75	0.10807
727.00	0.10507
727.25	0.10341
727.50	0.10069
727.75	0.098316
728.00	0.096264
728.25	0.094764
728.50	0.091598
728.75	0.090269
729.00	0.089754
729.25	0.086919
729.50	0.084720
729.75	0.082448
730.00	0.081867
730.25	0.081132
730.50	0.078927
730.75	0.076263
731.00	0.075314
731.25	0.075118
731.50	0.071805
731.75	0.070758
732.00	0.068290
732.25	0.067046
732.50	0.067591
732.75	0.064964
733.00	0.063494
733.25	0.063133
733.50	0.062380
733.75	0.062190
734.00	0.060096
734.25	0.057983
734.50	0.058656
734.75	0.055784
735.00	0.055790
735.25	0.054376
735.50	0.051540
735.75	0.053096
736.00	0.051289
736.25	0.050181
736.50	0.048288
736.75	0.048699
737.00	0.047076
737.25	0.046218
737.50	0.045777
737.75	0.043211
738.00	0.042440
738.25	0.042342
738.50	0.041478
738.75	0.041895
739.00	0.038998
739.25	0.038729
739.50	0.037792
739.75	0.036873
740.00	0.036965
740.25	0.034993
740.50	0.034717
740.75	0.034007
741.00	0.033958
741.25	0.031282
741.50	0.031949
741.75	0.032752
742.00	0.029726
742.25	0.029610
742.50	0.028587
742.75	0.028287
743.00	0.027852
743.25	0.026566
743.50	0.026989
743.75	0.026885
744.00	0.025831
744.25	0.024233
744.50	0.023345
744.75	0.024545
745.00	0.023682
745.25	0.022255
745.50	0.022763
745.75	0.022034
746.00	0.021318
746.25	0.019358
746.50	0.020246
746.75	0.019860
747.00	0.019952
747.25	0.020846
747.50	0.019615
747.75	0.017203
748.00	0.017509
748.25	0.017007
748.50	0.016731
748.75	0.018348
749.00	0.016792
749.25	0.016474
749.50	0.016149
749.75	0.015990
750.00	0.014924
750.25	0.015629
750.50	0.016437
750.75	0.013822
751.00	0.013675
751.25	0.014036
751.50	0.015028
751.75	0.012726
752.00	0.011556
752.25	0.013559
752.50	0.011170
752.75	0.012003
753.00	0.012426
753.25	0.011568
753.50	0.011844
753.75	0.013491
754.00	0.011679
754.25	0.010809
754.50	0.010815
754.75	0.010448
755.00	0.010356
755.25	0.0082430
755.50	0.0099516
755.75	0.0091555
756.00	0.0097495
756.25	0.010570
756.50	0.0082981
756.75	0.010141
757.00	0.0085370
757.25	0.0085615
757.50	0.0089289
757.75	0.0089779
758.00	0.0081021
758.25	0.0081511
758.50	0.0079919
758.75	0.0079919
759.00	0.0081144
759.25	0.0081144
759.50	0.0080654
759.75	0.0078756
760.00	0.0084818
760.25	0.0092474
760.50	0.0083287
760.75	0.0066997
761.00	0.0077714
761.25	0.0074775
761.50	0.0068406
761.75	0.0068835
762.00	0.0076061
762.25	0.0069080
762.50	0.0057750
762.75	0.0064303
763.00	0.0073121
763.25	0.0054994
763.50	0.0052422
763.75	0.0051014
764.00	0.0069263
764.25	0.0049238
764.50	0.0042317
764.75	0.0067487
765.00	0.0056403
765.25	0.0063078
765.50	0.0057444
765.75	0.0048993
766.00	0.0059955
766.25	0.0056525
766.50	0.0045073
766.75	0.0060016
767.00	0.0041766
767.25	0.0047707
767.50	0.0056097
767.75	0.0046420
768.00	0.0058669
768.25	0.0050769
768.50	0.0052483
768.75	0.0049360
769.00	0.0059036
769.25	0.0054076
769.50	0.0051503
769.75	0.0053708
770.00	0.0046543
770.25	0.0055545
770.50	0.0037847
770.75	0.0047951
771.00	0.0031600
771.25	0.0035030
771.50	0.0056770
771.75	0.0046727
772.00	0.0040786
772.25	0.0044216
772.50	0.0052422
772.75	0.0045747
773.00	0.0039929
773.25	0.0035152
773.50	0.0044277
773.75	0.0043113
774.00	0.0051075
774.25	0.0048564
774.50	0.0055545
774.75	0.0033682
775.00	0.0039990
775.25	0.0036622
775.50	0.0046298
775.75	0.0044889
776.00	0.0037541
776.25	0.0033192
776.50	0.0057934
776.75	0.0031355
777.00	0.0046114
777.25	0.0040909
777.50	0.0043052
777.75	0.0029089
778.00	0.0034172
778.25	0.0033866
778.50	0.0047339
778.75	0.0024435
779.00	0.0037112
779.25	0.0040970
779.50	0.0049115
779.75	0.0044400
780.00	0.0027375
780.25	0.0027803
780.50	0.0024986
780.75	0.0025966
781.00	0.0032641
781.25	0.0034846
781.50	0.0038398
781.75	0.0024680
782.00	0.0041031
782.25	0.0041705
782.50	0.0035152
782.75	0.0032335
783.00	0.0038520
783.25	0.0042379
783.50	0.0033192
783.75	0.0048686
784.00	0.0031968
784.25	0.0038520
784.50	0.0024129
784.75	0.0034172
785.00	0.0028293
785.25	0.0029947
785.50	0.0028783
785.75	0.0022904
786.00	0.0041766
786.25	0.0031416
786.50	0.0040909
786.75	0.0034111
787.00	0.0035336
787.25	0.0017209
787.50	0.0031233
787.75	0.0038765
788.00	0.0034601
788.25	0.0037234
788.50	0.0031172
788.75	0.0039439
789.00	0.0033315
789.25	0.0028048
789.50	0.0042317
789.75	0.0030008
790.00	0.0036499
790.25	0.0033682
790.50	0.0024619
790.75	0.0030192
791.00	0.0030559
791.25	0.0026089
791.50	0.0035397
791.75	0.0034111
792.00	0.0039684
792.25	0.0025905
792.50	0.0030682
792.75	0.0036316
793.00	0.0034234
793.25	0.0047033
793.50	0.0021618
793.75	0.0025721
794.00	0.0039194
794.25	0.0038214
794.50	0.0014759
794.75	0.0040786
795.00	0.0013963
795.25	0.0027191
795.50	0.0040174
795.75	0.0034968
796.00	0.0034846
796.25	0.0021067
796.50	0.0040603
796.75	0.0034968
797.00	0.0024313
797.25	0.0030988
797.50	0.0036744
797.75	0.0019903
798.00	0.0039010
798.25	0.0033682
798.50	0.0035948
798.75	0.0026946
799.00	0.0033682
799.25	0.0038459
799.50	0.0020761
799.75	0.0028538
800.00	0.0044522
