Wavelength (nm)	K11 abs N
220.00	0.11976
220.25	0.11830
220.50	0.11926
220.75	0.11685
221.00	0.11456
221.25	0.11362
221.50	0.11284
221.75	0.10967
222.00	0.10983
222.25	0.10933
222.50	0.10480
222.75	0.10511
223.00	0.10459
223.25	0.10328
223.50	0.10209
223.75	0.099258
224.00	0.099043
224.25	0.096840
224.50	0.096017
224.75	0.092207
225.00	0.093492
225.25	0.091289
225.50	0.089232
225.75	0.087346
226.00	0.086485
226.25	0.084308
226.50	0.084612
226.75	0.084004
227.00	0.080998
227.25	0.078858
227.50	0.078763
227.75	0.076301
228.00	0.074586
228.25	0.074162
228.50	0.072339
228.75	0.072985
229.00	0.070295
229.25	0.067814
229.50	0.068453
229.75	0.065769
230.00	0.065782
230.25	0.063370
230.50	0.062478
230.75	0.059149
231.00	0.059092
231.25	0.059535
231.50	0.057091
231.75	0.055996
232.00	0.055072
232.25	0.054509
232.50	0.054686
232.75	0.051598
233.00	0.051768
233.25	0.050876
233.50	0.049800
233.75	0.048458
234.00	0.047616
234.25	0.046680
234.50	0.046452
234.75	0.046142
235.00	0.042641
235.25	0.041034
235.50	0.041610
235.75	0.040717
236.00	0.039996
236.25	0.040148
236.50	0.040888
236.75	0.040451
237.00	0.039958
237.25	0.039236
237.50	0.038996
237.75	0.039439
238.00	0.039261
238.25	0.037812
238.50	0.037572
238.75	0.036236
239.00	0.037363
239.25	0.036052
239.50	0.035268
239.75	0.033768
240.00	0.032856
240.25	0.032021
240.50	0.033780
240.75	0.033736
241.00	0.032926
241.25	0.032476
241.50	0.032394
241.75	0.033856
242.00	0.035844
242.25	0.037622
242.50	0.038280
242.75	0.038128
243.00	0.037945
243.25	0.037837
243.50	0.035052
243.75	0.035476
244.00	0.034863
244.25	0.034426
244.50	0.033666
244.75	0.032236
245.00	0.032685
245.25	0.032742
245.50	0.031729
245.75	0.029590
246.00	0.030691
246.25	0.030856
246.50	0.031134
246.75	0.030691
247.00	0.032128
247.25	0.034217
247.50	0.036514
247.75	0.038856
248.00	0.041040
248.25	0.043281
248.50	0.043964
248.75	0.043331
249.00	0.042255
249.25	0.038951
249.50	0.037027
249.75	0.035578
250.00	0.034622
250.25	0.033584
250.50	0.032388
250.75	0.031710
251.00	0.030995
251.25	0.029926
251.50	0.029185
251.75	0.028875
252.00	0.028970
252.25	0.029008
252.50	0.029027
252.75	0.030761
253.00	0.032729
253.25	0.036964
253.50	0.040844
253.75	0.044502
254.00	0.047844
254.25	0.049509
254.50	0.048794
254.75	0.046952
255.00	0.045287
255.25	0.043971
255.50	0.041084
255.75	0.038793
256.00	0.036508
256.25	0.034325
256.50	0.031318
256.75	0.031628
257.00	0.030286
257.25	0.029014
257.50	0.027451
257.75	0.028596
258.00	0.027394
258.25	0.027343
258.50	0.028020
258.75	0.027324
259.00	0.026881
259.25	0.029755
259.50	0.031704
259.75	0.036027
260.00	0.038780
260.25	0.039515
260.50	0.039610
260.75	0.038483
261.00	0.037344
261.25	0.036483
261.50	0.034584
261.75	0.032331
262.00	0.030786
262.25	0.029457
262.50	0.027698
262.75	0.026723
263.00	0.026970
263.25	0.025590
263.50	0.026185
263.75	0.025381
264.00	0.025856
264.25	0.024799
264.50	0.023799
264.75	0.024299
265.00	0.023457
265.25	0.023381
265.50	0.022469
265.75	0.022147
266.00	0.022900
266.25	0.022438
266.50	0.021311
266.75	0.022590
267.00	0.022197
267.25	0.021374
267.50	0.022767
267.75	0.022564
268.00	0.023229
268.25	0.022349
268.50	0.021742
268.75	0.022318
269.00	0.022628
269.25	0.022090
269.50	0.022653
269.75	0.021938
270.00	0.021666
270.25	0.021052
270.50	0.021071
270.75	0.021273
271.00	0.021735
271.25	0.022324
271.50	0.024451
271.75	0.022653
272.00	0.022495
272.25	0.023007
272.50	0.023419
272.75	0.023805
273.00	0.023919
273.25	0.023526
273.50	0.024185
273.75	0.022533
274.00	0.023773
274.25	0.023102
274.50	0.024527
274.75	0.025862
275.00	0.025780
275.25	0.025843
275.50	0.025330
275.75	0.024603
276.00	0.026261
276.25	0.026495
276.50	0.026830
276.75	0.027590
277.00	0.026223
277.25	0.026634
277.50	0.026292
277.75	0.026584
278.00	0.026577
278.25	0.027204
278.50	0.026153
278.75	0.025590
279.00	0.027077
279.25	0.027647
279.50	0.027691
279.75	0.025406
280.00	0.025868
280.25	0.026311
280.50	0.026090
280.75	0.026153
281.00	0.026508
281.25	0.026539
281.50	0.026818
281.75	0.026546
282.00	0.027539
282.25	0.026141
282.50	0.027425
282.75	0.027995
283.00	0.027153
283.25	0.027362
283.50	0.026919
283.75	0.026881
284.00	0.028590
284.25	0.028843
284.50	0.028793
284.75	0.028141
285.00	0.028634
285.25	0.028862
285.50	0.027786
285.75	0.028660
286.00	0.028577
286.25	0.030185
286.50	0.029850
286.75	0.028856
287.00	0.028476
287.25	0.027799
287.50	0.027229
287.75	0.027514
288.00	0.028628
288.25	0.027020
288.50	0.025508
288.75	0.023716
289.00	0.024558
289.25	0.023697
289.50	0.023875
289.75	0.024090
290.00	0.022197
290.25	0.020640
290.50	0.021678
290.75	0.020666
291.00	0.019969
291.25	0.019938
291.50	0.018368
291.75	0.018033
292.00	0.018615
292.25	0.016640
292.50	0.017501
292.75	0.016697
293.00	0.016488
293.25	0.016089
293.50	0.015292
293.75	0.015798
294.00	0.015488
294.25	0.016589
294.50	0.015672
294.75	0.015881
295.00	0.015507
295.25	0.015355
295.50	0.015070
295.75	0.015248
296.00	0.015425
296.25	0.016127
296.50	0.014805
296.75	0.015564
297.00	0.015855
297.25	0.016539
297.50	0.015900
297.75	0.016305
298.00	0.014836
298.25	0.015602
298.50	0.014058
298.75	0.016374
299.00	0.016501
299.25	0.015229
299.50	0.016077
299.75	0.015906
300.00	0.016077
300.25	0.016627
300.50	0.015513
300.75	0.015919
301.00	0.015716
301.25	0.016703
301.50	0.018007
301.75	0.016792
302.00	0.016532
302.25	0.016963
302.50	0.016703
302.75	0.016596
303.00	0.017311
303.25	0.018052
303.50	0.018203
303.75	0.016849
304.00	0.018330
304.25	0.018628
304.50	0.017450
304.75	0.018514
305.00	0.018020
305.25	0.018330
305.50	0.019058
305.75	0.019400
306.00	0.018963
306.25	0.018659
306.50	0.019501
306.75	0.019849
307.00	0.018602
307.25	0.019609
307.50	0.020957
307.75	0.020735
308.00	0.020799
308.25	0.021115
308.50	0.021261
308.75	0.021406
309.00	0.019741
309.25	0.020710
309.50	0.021020
309.75	0.021210
310.00	0.020786
310.25	0.021058
310.50	0.018868
310.75	0.022337
311.00	0.023254
311.25	0.023140
311.50	0.023672
311.75	0.022020
312.00	0.019830
312.25	0.020109
312.50	0.023634
312.75	0.025014
313.00	0.023349
313.25	0.021697
313.50	0.019976
313.75	0.021818
314.00	0.024242
314.25	0.027312
314.50	0.027210
314.75	0.022166
315.00	0.022343
315.25	0.022507
315.50	0.027046
315.75	0.025103
316.00	0.026634
316.25	0.029090
316.50	0.023957
316.75	0.022223
317.00	0.025609
317.25	0.021723
317.50	0.028406
317.75	0.025951
318.00	0.022906
318.25	0.022343
318.50	0.022970
318.75	0.022564
319.00	0.023659
319.25	0.027033
319.50	0.025754
319.75	0.026887
320.00	0.025786
320.25	0.025533
320.50	0.022533
320.75	0.023343
321.00	0.024375
321.25	0.024697
321.50	0.023324
321.75	0.021944
322.00	0.023001
322.25	0.025913
322.50	0.020786
322.75	0.024615
323.00	0.020153
323.25	0.022761
323.50	0.022375
323.75	0.028786
324.00	0.022121
324.25	0.025311
324.50	0.023109
324.75	0.022273
325.00	0.027476
325.25	0.024976
325.50	0.027698
325.75	0.023773
326.00	0.025375
326.25	0.022634
326.50	0.025792
326.75	0.028609
327.00	0.023172
327.25	0.029020
327.50	0.025191
327.75	0.025419
328.00	0.023330
328.25	0.027906
328.50	0.028742
328.75	0.027261
329.00	0.027533
329.25	0.028198
329.50	0.025590
329.75	0.026166
330.00	0.025951
330.25	0.025394
330.50	0.025590
330.75	0.025995
331.00	0.024621
331.25	0.023552
331.50	0.021337
331.75	0.022476
332.00	0.023140
332.25	0.020476
332.50	0.022413
332.75	0.017957
333.00	0.021064
333.25	0.019881
333.50	0.018526
333.75	0.019887
334.00	0.017210
334.25	0.018058
334.50	0.015583
334.75	0.018609
335.00	0.015178
335.25	0.017982
335.50	0.014754
335.75	0.015697
336.00	0.013564
336.25	0.015349
336.50	0.016817
336.75	0.013317
337.00	0.011469
337.25	0.016602
337.50	0.013064
337.75	0.014596
338.00	0.015222
338.25	0.0087283
338.50	0.0093865
338.75	0.010323
339.00	0.0098676
339.25	0.010969
339.50	0.0096524
339.75	0.010494
340.00	0.012868
340.25	0.010317
340.50	0.0071459
340.75	0.0090954
341.00	0.0099309
341.25	0.0070953
341.50	0.0086587
341.75	0.0087156
342.00	0.0085257
342.25	0.0080827
342.50	0.0063484
342.75	0.010887
343.00	0.010754
343.25	0.011013
343.50	0.010564
343.75	0.0081586
344.00	0.0097030
344.25	0.0079561
344.50	0.0067155
344.75	0.0082789
345.00	0.0083612
345.25	0.013855
345.50	0.013583
345.75	0.0091840
346.00	0.010773
346.25	0.0097283
346.50	0.010412
346.75	0.0055446
347.00	0.011216
347.25	0.010317
347.50	0.0096840
347.75	0.0083928
348.00	0.010463
348.25	0.011108
348.50	0.0082662
348.75	0.0090068
349.00	0.0069877
349.25	0.0092410
349.50	0.0092663
349.75	0.0075447
350.00	0.0085447
350.25	0.010614
350.50	0.011089
350.75	0.0091081
351.00	0.010095
351.25	0.010792
351.50	0.0097410
351.75	0.0097157
352.00	0.010368
352.25	0.010216
352.50	0.0083802
352.75	0.0082219
353.00	0.0087156
353.25	0.011013
353.50	0.0099562
353.75	0.012570
354.00	0.0093929
354.25	0.0086333
354.50	0.0087283
354.75	0.013425
355.00	0.012773
355.25	0.011209
355.50	0.0096271
355.75	0.011171
356.00	0.011899
356.25	0.012140
356.50	0.012096
356.75	0.010285
357.00	0.010209
357.25	0.0091840
357.50	0.011804
357.75	0.010754
358.00	0.011171
358.25	0.012425
358.50	0.011393
358.75	0.0089118
359.00	0.013665
359.25	0.0098043
359.50	0.013551
359.75	0.012773
360.00	0.013292
360.25	0.012342
360.50	0.011450
360.75	0.011387
361.00	0.011564
361.25	0.012456
361.50	0.012760
361.75	0.011621
362.00	0.012956
362.25	0.014089
362.50	0.011849
362.75	0.012823
363.00	0.013070
363.25	0.012532
363.50	0.012184
363.75	0.012754
364.00	0.011912
364.25	0.016381
364.50	0.012494
364.75	0.011633
365.00	0.012203
365.25	0.015153
365.50	0.013513
365.75	0.013887
366.00	0.013032
366.25	0.013798
366.50	0.014032
366.75	0.011925
367.00	0.013292
367.25	0.011532
367.50	0.014950
367.75	0.011121
368.00	0.012494
368.25	0.012526
368.50	0.012912
368.75	0.010532
369.00	0.010393
369.25	0.014425
369.50	0.012621
369.75	0.012849
370.00	0.011235
370.25	0.010551
370.50	0.011539
370.75	0.013748
371.00	0.011159
371.25	0.011969
371.50	0.012463
371.75	0.011804
372.00	0.011323
372.25	0.013767
372.50	0.011209
372.75	0.011393
373.00	0.011026
373.25	0.012355
373.50	0.010874
373.75	0.013975
374.00	0.013083
374.25	0.012437
374.50	0.012735
374.75	0.011830
375.00	0.014342
375.25	0.014836
375.50	0.012260
375.75	0.011994
376.00	0.012425
376.25	0.013165
376.50	0.012108
376.75	0.011349
377.00	0.012197
377.25	0.010222
377.50	0.013108
377.75	0.010697
378.00	0.012380
378.25	0.011874
378.50	0.011640
378.75	0.012045
379.00	0.013134
379.25	0.013045
379.50	0.011178
379.75	0.0097537
380.00	0.011197
380.25	0.011798
380.50	0.013349
380.75	0.013855
381.00	0.013140
381.25	0.010912
381.50	0.014191
381.75	0.012482
382.00	0.0095195
382.25	0.011178
382.50	0.011912
382.75	0.012975
383.00	0.010678
383.25	0.0095448
383.50	0.010026
383.75	0.010266
384.00	0.012551
384.25	0.010798
384.50	0.011102
384.75	0.010152
385.00	0.010108
385.25	0.010051
385.50	0.010285
385.75	0.0089245
386.00	0.0099372
386.25	0.0094245
386.50	0.011001
386.75	0.0087093
387.00	0.0099625
387.25	0.0093676
387.50	0.0085004
387.75	0.010114
388.00	0.0093739
388.25	0.0089372
388.50	0.011140
388.75	0.0082409
389.00	0.0079308
389.25	0.0083422
389.50	0.0081270
389.75	0.0062028
390.00	0.0074687
390.25	0.0077599
390.50	0.0064750
390.75	0.0072915
391.00	0.0057281
391.25	0.0053420
391.50	0.0075890
391.75	0.0061965
392.00	0.0076903
392.25	0.0071080
392.50	0.0072156
392.75	0.0054307
393.00	0.0062598
393.25	0.0052724
393.50	0.0044876
393.75	0.0052408
394.00	0.0055446
394.25	0.0051268
394.50	0.0059433
394.75	0.0062345
395.00	0.0059243
395.25	0.0057661
395.50	0.0067725
395.75	0.0040635
396.00	0.0052787
396.25	0.0054433
396.50	0.0034938
396.75	0.0052091
397.00	0.0032154
397.25	0.0054750
397.50	0.0025001
397.75	0.0047407
398.00	0.0037027
398.25	0.0056269
398.50	0.0044295
398.75	0.0047218
399.00	0.0035761
399.25	0.0031964
399.50	0.0043420
399.75	0.0032723
400.00	0.0016393
400.25	0.0043357
400.50	0.0024685
400.75	0.0037723
401.00	0.0011963
401.25	0.0027470
401.50	0.0030445
401.75	0.0057724
402.00	0.0031774
402.25	0.0033862
402.50	0.0033926
402.75	0.0026204
403.00	0.0043230
403.25	0.0015570
403.50	0.0029115
403.75	0.0036394
404.00	0.0037850
404.25	0.0032723
404.50	0.0029052
404.75	0.0042154
405.00	0.0023545
405.25	0.0040888
405.50	0.0038103
405.75	0.0025571
406.00	0.0032090
406.25	0.0017533
406.50	0.00098739
406.75	0.0020064
407.00	0.0026077
407.25	0.0023799
407.50	0.0022596
407.75	0.0024052
408.00	0.0017912
408.25	0.0029369
408.50	0.0036394
408.75	0.0018292
409.00	0.0016140
409.25	0.0021457
409.50	0.0036964
409.75	0.0031964
410.00	0.0025254
410.25	0.0030571
410.50	0.0038483
410.75	0.0018925
411.00	0.0044812
411.25	0.0030318
411.50	0.0028293
411.75	0.0041268
412.00	0.0027596
412.25	0.0022090
412.50	0.0027913
412.75	0.0014748
413.00	0.0025508
413.25	0.0026647
413.50	0.0025508
413.75	0.0014811
414.00	0.0018419
414.25	0.0025065
414.50	0.0028103
414.75	0.0032154
415.00	0.0027849
415.25	0.0015001
415.50	0.0019115
415.75	0.0016267
416.00	0.0022596
416.25	0.0021330
416.50	0.0012596
416.75	0.0017722
417.00	0.0012406
417.25	0.00076586
417.50	0.0023356
417.75	0.0018355
418.00	0.0013861
418.25	0.0032154
418.50	0.0022533
418.75	0.0017596
419.00	0.0020254
419.25	0.0026204
419.50	0.0029179
419.75	0.0031141
420.00	0.0018292
420.25	0.0010380
420.50	0.0019431
420.75	0.0024748
421.00	0.0033609
421.25	0.0030888
421.50	0.0020001
421.75	0.0035951
422.00	0.0027660
422.25	0.00081017
422.50	0.00072156
422.75	0.0010064
423.00	0.0017216
423.25	0.00025951
423.50	0.0011709
423.75	0.0024052
424.00	0.0018988
424.25	0.0015950
424.50	0.0012406
424.75	0.0021140
425.00	0.0023229
425.25	0.0016077
425.50	0.00063927
425.75	0.00066459
426.00	0.00045572
426.25	0.0028799
426.50	0.0024748
426.75	0.0015950
427.00	0.0016393
427.25	0.0016140
427.50	0.00087979
427.75	0.0010254
428.00	0.0014621
428.25	0.0013039
428.50	0.0015887
428.75	0.0021014
429.00	0.0010887
429.25	0.0018229
429.50	0.00013292
429.75	0.0021077
430.00	0.0022976
430.25	0.0014115
430.50	0.0030002
430.75	0.0019052
431.00	0.0024938
431.25	0.0015381
431.50	0.0014937
431.75	0.0014115
432.00	0.0030318
432.25	0.0021900
432.50	0.00059497
432.75	0.0011077
433.00	0.0024748
433.25	0.0017406
433.50	0.0015887
433.75	0.0015634
434.00	0.0012153
434.25	0.0015127
434.50	0.00091777
434.75	0.00065826
435.00	0.0015064
435.25	0.0010190
435.50	0.0025191
435.75	0.0022216
436.00	0.0013988
436.25	0.0030191
436.50	0.0019621
436.75	0.0017406
437.00	0.0014874
437.25	0.0023862
437.50	0.00073421
437.75	0.00089878
438.00	0.0016520
438.25	0.00060763
438.50	0.0011899
438.75	0.0017343
439.00	0.0029685
439.25	0.00037977
439.50	0.0019115
439.75	0.0012975
440.00	0.0018735
440.25	0.0037913
440.50	0.0014874
440.75	0.0014684
441.00	0.0011330
441.25	0.00018988
441.50	0.0024621
441.75	0.0013482
442.00	0.0014368
442.25	0.0017153
442.50	0.0015634
442.75	0.0025951
443.00	0.0025318
443.25	0.0011393
443.50	0.0017533
443.75	0.0012849
444.00	0.0022469
444.25	0.0013925
444.50	0.0021330
444.75	0.0023482
445.00	0.0010127
445.25	0.0011140
445.50	0.0026457
445.75	0.0013545
446.00	0.0018355
446.25	0.0026584
446.50	0.0016900
446.75	0.0011077
447.00	0.0033166
447.25	0.0018925
447.50	0.0019558
447.75	0.0015950
448.00	0.0018609
448.25	0.0017153
448.50	0.0016773
448.75	0.0015127
449.00	0.0021204
449.25	0.0022026
449.50	0.0012659
449.75	0.0024811
450.00	0.0028419
450.25	0.0019495
450.50	0.00033546
450.75	0.0024368
451.00	0.0019685
451.25	0.0020381
451.50	0.0027343
451.75	0.0033546
452.00	0.0015950
452.25	0.0018482
452.50	0.0023672
452.75	0.0016077
453.00	0.0018545
453.25	0.0037850
453.50	0.0013355
453.75	0.0021077
454.00	0.0020950
454.25	0.0027343
454.50	0.0019178
454.75	0.0031647
455.00	0.0020761
455.25	0.0026204
455.50	0.0021267
455.75	0.0044812
456.00	0.0025508
456.25	0.0019685
456.50	0.0033926
456.75	0.0019241
457.00	0.0025761
457.25	0.0025887
457.50	0.0033673
457.75	0.0022976
458.00	0.0037977
458.25	0.0028799
458.50	0.0017469
458.75	0.0018609
459.00	0.0024621
459.25	0.0027533
459.50	0.0025697
459.75	0.0024558
460.00	0.0035761
460.25	0.0015381
460.50	0.0033419
460.75	0.0036078
461.00	0.0041205
461.25	0.0030128
461.50	0.0027596
461.75	0.0031584
462.00	0.0030191
462.25	0.0034685
462.50	0.0022026
462.75	0.0044622
463.00	0.0025191
463.25	0.0034812
463.50	0.0021647
463.75	0.0027533
464.00	0.0035635
464.25	0.0020128
464.50	0.0037977
464.75	0.0034622
465.00	0.0047154
465.25	0.0031710
465.50	0.0038103
465.75	0.0045825
466.00	0.0037787
466.25	0.0034875
466.50	0.0035888
466.75	0.0043736
467.00	0.0031710
467.25	0.0040698
467.50	0.0032217
467.75	0.0049433
468.00	0.0032786
468.25	0.0043610
468.50	0.0046395
468.75	0.0038736
469.00	0.0035255
469.25	0.0043863
469.50	0.0022153
469.75	0.0043610
470.00	0.0042660
470.25	0.0037407
470.50	0.0038989
470.75	0.0030824
471.00	0.0025508
471.25	0.0028862
471.50	0.0034685
471.75	0.0036268
472.00	0.0042914
472.25	0.0040635
472.50	0.0038799
472.75	0.0034875
473.00	0.0046711
473.25	0.0046901
473.50	0.0045572
473.75	0.0030128
474.00	0.0030065
474.25	0.0040951
474.50	0.0032850
474.75	0.0037787
475.00	0.0039622
475.25	0.0039939
475.50	0.0039875
475.75	0.0058737
476.00	0.0051775
476.25	0.0043863
476.50	0.0035888
476.75	0.0048610
477.00	0.0036268
477.25	0.0044939
477.50	0.0049116
477.75	0.0041584
478.00	0.0037407
478.25	0.0037217
478.50	0.0054117
478.75	0.0038926
479.00	0.0061712
479.25	0.0053610
479.50	0.0046711
479.75	0.0056522
480.00	0.0044179
480.25	0.0059750
480.50	0.0044116
480.75	0.0060699
481.00	0.0041331
481.25	0.0048610
481.50	0.0055319
481.75	0.0046458
482.00	0.0052851
482.25	0.0049749
482.50	0.0054370
482.75	0.0040382
483.00	0.0060446
483.25	0.0050825
483.50	0.0060003
483.75	0.0054180
484.00	0.0052028
484.25	0.0063231
484.50	0.0051965
484.75	0.0056775
485.00	0.0063737
485.25	0.0069181
485.50	0.0066459
485.75	0.0054813
486.00	0.0058990
486.25	0.0064434
486.50	0.0074624
486.75	0.0070510
487.00	0.0050129
487.25	0.0071586
487.50	0.0061839
487.75	0.0064813
488.00	0.0060826
488.25	0.0062282
488.50	0.0070447
488.75	0.0076396
489.00	0.0064877
489.25	0.0060319
489.50	0.0068801
489.75	0.0070257
490.00	0.0071776
490.25	0.0074940
490.50	0.0066776
490.75	0.0064370
491.00	0.0078042
491.25	0.0075763
491.50	0.0055256
491.75	0.0081017
492.00	0.0078928
492.25	0.0077852
492.50	0.0078548
492.75	0.0078422
493.00	0.0075067
493.25	0.0087093
493.50	0.0072472
493.75	0.0075573
494.00	0.0075194
494.25	0.0090511
494.50	0.0087853
494.75	0.0085447
495.00	0.0089561
495.25	0.0092093
495.50	0.0077979
495.75	0.0087093
496.00	0.0094182
496.25	0.0083928
496.50	0.0099119
496.75	0.0085447
497.00	0.0081776
497.25	0.0092916
497.50	0.0098929
497.75	0.0098296
498.00	0.0093549
498.25	0.010880
498.50	0.010032
498.75	0.0081523
499.00	0.010482
499.25	0.011121
499.50	0.010671
499.75	0.010368
500.00	0.010785
500.25	0.010045
500.50	0.012026
500.75	0.0099942
501.00	0.011083
501.25	0.011178
501.50	0.011317
501.75	0.012342
502.00	0.010520
502.25	0.013380
502.50	0.012747
502.75	0.012045
503.00	0.012570
503.25	0.012893
503.50	0.014013
503.75	0.011190
504.00	0.012969
504.25	0.012121
504.50	0.012868
504.75	0.013564
505.00	0.013982
505.25	0.014013
505.50	0.014051
505.75	0.012564
506.00	0.014710
506.25	0.013792
506.50	0.014051
506.75	0.014286
507.00	0.014855
507.25	0.015412
507.50	0.016476
507.75	0.016811
508.00	0.016532
508.25	0.014824
508.50	0.015786
508.75	0.016007
509.00	0.015672
509.25	0.014792
509.50	0.016210
509.75	0.016494
510.00	0.017273
510.25	0.017033
510.50	0.015659
510.75	0.016108
511.00	0.017311
511.25	0.018362
511.50	0.018001
511.75	0.018748
512.00	0.017665
512.25	0.018058
512.50	0.017545
512.75	0.018109
513.00	0.018533
513.25	0.019982
513.50	0.018615
513.75	0.017811
514.00	0.018621
514.25	0.020102
514.50	0.021362
514.75	0.019760
515.00	0.018659
515.25	0.021742
515.50	0.020552
515.75	0.021849
516.00	0.020064
516.25	0.021488
516.50	0.021450
516.75	0.023368
517.00	0.022767
517.25	0.021539
517.50	0.021248
517.75	0.023400
518.00	0.021938
518.25	0.020963
518.50	0.022811
518.75	0.024071
519.00	0.023811
519.25	0.023248
519.50	0.023482
519.75	0.026046
520.00	0.024615
520.25	0.024729
520.50	0.024064
520.75	0.025881
521.00	0.026577
521.25	0.026204
521.50	0.026077
521.75	0.025894
522.00	0.028324
522.25	0.028312
522.50	0.026552
522.75	0.027033
523.00	0.030052
523.25	0.028970
523.50	0.027413
523.75	0.028957
524.00	0.027786
524.25	0.032685
524.50	0.030464
524.75	0.028729
525.00	0.030223
525.25	0.031502
525.50	0.031210
525.75	0.030869
526.00	0.032046
526.25	0.032464
526.50	0.032394
526.75	0.033217
527.00	0.033312
527.25	0.034540
527.50	0.035856
527.75	0.034268
528.00	0.033647
528.25	0.035622
528.50	0.035989
528.75	0.036369
529.00	0.036996
529.25	0.036052
529.50	0.038091
529.75	0.037375
530.00	0.038223
530.25	0.039584
530.50	0.037875
530.75	0.041724
531.00	0.039597
531.25	0.041869
531.50	0.040515
531.75	0.042743
532.00	0.041850
532.25	0.040224
532.50	0.044009
532.75	0.044084
533.00	0.044920
533.25	0.044939
533.50	0.046230
533.75	0.046237
534.00	0.045749
534.25	0.047585
534.50	0.047699
534.75	0.047490
535.00	0.046945
535.25	0.048452
535.50	0.049199
535.75	0.050306
536.00	0.049148
536.25	0.050085
536.50	0.051566
536.75	0.051458
537.00	0.052072
537.25	0.053167
537.50	0.056237
537.75	0.055224
538.00	0.054977
538.25	0.054889
538.50	0.056294
538.75	0.055591
539.00	0.056914
539.25	0.058889
539.50	0.057921
539.75	0.060338
540.00	0.060661
540.25	0.059604
540.50	0.061073
540.75	0.061737
541.00	0.064041
541.25	0.064111
541.50	0.065377
541.75	0.064870
542.00	0.064953
542.25	0.065883
542.50	0.067573
542.75	0.066510
543.00	0.068541
543.25	0.069820
543.50	0.069940
543.75	0.070453
544.00	0.070972
544.25	0.070706
544.50	0.072105
544.75	0.073042
545.00	0.071105
545.25	0.075960
545.50	0.075213
545.75	0.077118
546.00	0.075092
546.25	0.075459
546.50	0.077877
546.75	0.075478
547.00	0.078941
547.25	0.078409
547.50	0.081232
547.75	0.079795
548.00	0.081415
548.25	0.081599
548.50	0.083397
548.75	0.083884
549.00	0.084840
549.25	0.085492
549.50	0.086352
549.75	0.086909
550.00	0.087131
550.25	0.087036
550.50	0.089156
550.75	0.088175
551.00	0.090043
551.25	0.088606
551.50	0.091397
551.75	0.092081
552.00	0.093005
552.25	0.093100
552.50	0.092739
552.75	0.096068
553.00	0.094290
553.25	0.096353
553.50	0.097631
553.75	0.097119
554.00	0.097600
554.25	0.098524
554.50	0.099859
554.75	0.098695
555.00	0.10138
555.25	0.10135
555.50	0.10420
555.75	0.10351
556.00	0.10402
556.25	0.10619
556.50	0.10567
556.75	0.10821
557.00	0.10561
557.25	0.10903
557.50	0.10870
557.75	0.11052
558.00	0.11051
558.25	0.11114
558.50	0.11253
558.75	0.11423
559.00	0.11452
559.25	0.11423
559.50	0.11635
559.75	0.11690
560.00	0.11770
560.25	0.11928
560.50	0.11968
560.75	0.12073
561.00	0.12309
561.25	0.12192
561.50	0.12387
561.75	0.12497
562.00	0.12741
562.25	0.12678
562.50	0.12607
562.75	0.12915
563.00	0.12982
563.25	0.13351
563.50	0.13073
563.75	0.13423
564.00	0.13677
564.25	0.13680
564.50	0.13886
564.75	0.13709
565.00	0.14103
565.25	0.14158
565.50	0.14486
565.75	0.14276
566.00	0.14637
566.25	0.14737
566.50	0.14853
566.75	0.15031
567.00	0.14994
567.25	0.15359
567.50	0.15434
567.75	0.15794
568.00	0.15777
568.25	0.16048
568.50	0.16229
568.75	0.16207
569.00	0.16529
569.25	0.16656
569.50	0.16941
569.75	0.17191
570.00	0.17396
570.25	0.17398
570.50	0.17722
570.75	0.17881
571.00	0.18288
571.25	0.18436
571.50	0.18448
571.75	0.18808
572.00	0.18749
572.25	0.19298
572.50	0.19478
572.75	0.19529
573.00	0.19838
573.25	0.20033
573.50	0.20361
573.75	0.20235
574.00	0.20545
574.25	0.20583
574.50	0.20876
574.75	0.21184
575.00	0.21390
575.25	0.21663
575.50	0.21975
575.75	0.22101
576.00	0.22357
576.25	0.22579
576.50	0.22906
576.75	0.23275
577.00	0.23470
577.25	0.23620
577.50	0.23954
577.75	0.24184
578.00	0.24476
578.25	0.24608
578.50	0.24895
578.75	0.25235
579.00	0.25478
579.25	0.25751
579.50	0.25893
579.75	0.26191
580.00	0.26563
580.25	0.26875
580.50	0.27151
580.75	0.27446
581.00	0.27522
581.25	0.27917
581.50	0.28101
581.75	0.28388
582.00	0.28638
582.25	0.28915
582.50	0.29082
582.75	0.29470
583.00	0.29800
583.25	0.30086
583.50	0.30029
583.75	0.30437
584.00	0.30644
584.25	0.30855
584.50	0.31131
584.75	0.31344
585.00	0.31605
585.25	0.31806
585.50	0.32015
585.75	0.32266
586.00	0.32518
586.25	0.32805
586.50	0.32831
586.75	0.33098
587.00	0.33242
587.25	0.33552
587.50	0.33707
587.75	0.33818
588.00	0.34125
588.25	0.34302
588.50	0.34473
588.75	0.34559
589.00	0.34744
589.25	0.34968
589.50	0.34864
589.75	0.35210
590.00	0.35208
590.25	0.35523
590.50	0.35671
590.75	0.35771
591.00	0.35854
591.25	0.36015
591.50	0.36206
591.75	0.36250
592.00	0.36323
592.25	0.36508
592.50	0.36640
592.75	0.36772
593.00	0.36768
593.25	0.36806
593.50	0.36937
593.75	0.37223
594.00	0.37134
594.25	0.37350
594.50	0.37396
594.75	0.37443
595.00	0.37475
595.25	0.37522
595.50	0.37641
595.75	0.37555
596.00	0.37746
596.25	0.37646
596.50	0.37813
596.75	0.38084
597.00	0.37872
597.25	0.38038
597.50	0.38122
597.75	0.38059
598.00	0.38235
598.25	0.38235
598.50	0.38202
598.75	0.38338
599.00	0.38392
599.25	0.38539
599.50	0.38483
599.75	0.38424
600.00	0.38522
600.25	0.38637
600.50	0.38524
600.75	0.38570
601.00	0.38618
601.25	0.38777
601.50	0.38596
601.75	0.39042
602.00	0.38879
602.25	0.38887
602.50	0.38831
602.75	0.38933
603.00	0.39207
603.25	0.39210
603.50	0.39348
603.75	0.39442
604.00	0.39251
604.25	0.39410
604.50	0.39732
604.75	0.39811
605.00	0.39754
605.25	0.40039
605.50	0.39953
605.75	0.40304
606.00	0.40300
606.25	0.40512
606.50	0.40594
606.75	0.40814
607.00	0.40815
607.25	0.40984
607.50	0.41217
607.75	0.41449
608.00	0.41508
608.25	0.41657
608.50	0.41900
608.75	0.42158
609.00	0.42450
609.25	0.42586
609.50	0.42706
609.75	0.42866
610.00	0.43345
610.25	0.43428
610.50	0.43536
610.75	0.43891
611.00	0.44075
611.25	0.44595
611.50	0.44738
611.75	0.45144
612.00	0.45470
612.25	0.45724
612.50	0.45969
612.75	0.46180
613.00	0.46788
613.25	0.46905
613.50	0.47312
613.75	0.47617
614.00	0.47868
614.25	0.48286
614.50	0.48699
614.75	0.48830
615.00	0.49381
615.25	0.49918
615.50	0.50349
615.75	0.50811
616.00	0.51175
616.25	0.51617
616.50	0.52122
616.75	0.52583
617.00	0.53341
617.25	0.53723
617.50	0.54343
617.75	0.54822
618.00	0.55286
618.25	0.55826
618.50	0.56559
618.75	0.57028
619.00	0.57826
619.25	0.58441
619.50	0.58957
619.75	0.59576
620.00	0.60077
620.25	0.60688
620.50	0.61549
620.75	0.62072
621.00	0.62893
621.25	0.63444
621.50	0.64237
621.75	0.64816
622.00	0.65587
622.25	0.66410
622.50	0.67039
622.75	0.67848
623.00	0.68448
623.25	0.69404
623.50	0.69874
623.75	0.70716
624.00	0.71505
624.25	0.72029
624.50	0.72832
624.75	0.73710
625.00	0.74512
625.25	0.75178
625.50	0.76046
625.75	0.76634
626.00	0.77313
626.25	0.78065
626.50	0.78969
626.75	0.79678
627.00	0.80337
627.25	0.81037
627.50	0.81835
627.75	0.82414
628.00	0.83336
628.25	0.84025
628.50	0.84795
628.75	0.85253
629.00	0.86157
629.25	0.86708
629.50	0.87584
629.75	0.88237
630.00	0.88741
630.25	0.89859
630.50	0.89891
630.75	0.90373
631.00	0.91228
631.25	0.91715
631.50	0.92621
631.75	0.93267
632.00	0.93478
632.25	0.94036
632.50	0.94609
632.75	0.95212
633.00	0.95226
633.25	0.95951
633.50	0.96267
633.75	0.96738
634.00	0.96855
634.25	0.97314
634.50	0.97933
634.75	0.98235
635.00	0.98732
635.25	0.98570
635.50	0.99010
635.75	0.99326
636.00	0.99418
636.25	0.99454
636.50	0.99671
636.75	0.99918
637.00	0.99583
637.25	0.99599
637.50	1.0000
637.75	0.99692
638.00	0.99998
638.25	0.99811
638.50	0.99561
638.75	0.99011
639.00	0.99232
639.25	0.98624
639.50	0.98526
639.75	0.98289
640.00	0.98021
640.25	0.97793
640.50	0.96944
640.75	0.96937
641.00	0.96531
641.25	0.96207
641.50	0.95617
641.75	0.95271
642.00	0.94626
642.25	0.94168
642.50	0.93571
642.75	0.92952
643.00	0.92623
643.25	0.91800
643.50	0.91271
643.75	0.90651
644.00	0.90180
644.25	0.89217
644.50	0.88301
644.75	0.87632
645.00	0.86870
645.25	0.85895
645.50	0.85205
645.75	0.84351
646.00	0.83777
646.25	0.82380
646.50	0.81624
646.75	0.80982
647.00	0.80088
647.25	0.78980
647.50	0.77905
647.75	0.77349
648.00	0.76116
648.25	0.75429
648.50	0.74069
648.75	0.73095
649.00	0.72452
649.25	0.71292
649.50	0.70315
649.75	0.69330
650.00	0.68264
650.25	0.67295
650.50	0.66187
650.75	0.65281
651.00	0.63961
651.25	0.63031
651.50	0.62023
651.75	0.60942
652.00	0.59793
652.25	0.58814
652.50	0.57793
652.75	0.56706
653.00	0.55738
653.25	0.54877
653.50	0.54154
653.75	0.53547
654.00	0.52553
654.25	0.51868
654.50	0.50751
654.75	0.49940
655.00	0.48855
655.25	0.47882
655.50	0.46816
655.75	0.45731
656.00	0.44846
656.25	0.43900
656.50	0.43204
656.75	0.42062
657.00	0.41305
657.25	0.40105
657.50	0.39320
657.75	0.38286
658.00	0.37589
658.25	0.36601
658.50	0.35754
658.75	0.34760
659.00	0.34094
659.25	0.33226
659.50	0.32215
659.75	0.31519
660.00	0.30936
660.25	0.30103
660.50	0.29315
660.75	0.28417
661.00	0.27815
661.25	0.26995
661.50	0.26356
661.75	0.25670
662.00	0.25062
662.25	0.24347
662.50	0.23652
662.75	0.23107
663.00	0.22397
663.25	0.21846
663.50	0.21297
663.75	0.20634
664.00	0.20073
664.25	0.19638
664.50	0.19143
664.75	0.18521
665.00	0.18053
665.25	0.17572
665.50	0.17091
665.75	0.16708
666.00	0.16174
666.25	0.15821
666.50	0.15326
666.75	0.14937
667.00	0.14603
667.25	0.14070
667.50	0.13780
667.75	0.13394
668.00	0.13055
668.25	0.12840
668.50	0.12209
668.75	0.12025
669.00	0.11677
669.25	0.11465
669.50	0.11057
669.75	0.10728
670.00	0.10539
670.25	0.10265
670.50	0.097448
670.75	0.095036
671.00	0.094397
671.25	0.090568
671.50	0.088985
671.75	0.085941
672.00	0.084068
672.25	0.082884
672.50	0.080023
672.75	0.078048
673.00	0.075080
673.25	0.072972
673.50	0.070820
673.75	0.070655
674.00	0.068225
674.25	0.066168
674.50	0.062585
674.75	0.060541
675.00	0.060927
675.25	0.058528
675.50	0.057636
675.75	0.056636
676.00	0.053680
676.25	0.052155
676.50	0.050813
676.75	0.050142
677.00	0.049344
677.25	0.048325
677.50	0.046718
677.75	0.046509
678.00	0.045262
678.25	0.044293
678.50	0.043084
678.75	0.042553
679.00	0.041154
679.25	0.040654
679.50	0.039356
679.75	0.037698
680.00	0.036856
680.25	0.038698
680.50	0.036477
680.75	0.036774
681.00	0.035293
681.25	0.033907
681.50	0.033711
681.75	0.032122
682.00	0.033116
682.25	0.031318
682.50	0.032217
682.75	0.030394
683.00	0.030945
683.25	0.029843
683.50	0.029179
683.75	0.029634
684.00	0.028476
684.25	0.028647
684.50	0.026343
684.75	0.028204
685.00	0.026071
685.25	0.026387
685.50	0.025027
685.75	0.024185
686.00	0.025425
686.25	0.022488
686.50	0.024381
686.75	0.023558
687.00	0.024444
687.25	0.023216
687.50	0.022862
687.75	0.021704
688.00	0.021425
688.25	0.021906
688.50	0.020001
688.75	0.019571
689.00	0.019969
689.25	0.019621
689.50	0.019052
689.75	0.018292
690.00	0.018609
690.25	0.018336
690.50	0.017919
690.75	0.016311
691.00	0.017159
691.25	0.017292
691.50	0.016691
691.75	0.016324
692.00	0.017241
692.25	0.017412
692.50	0.016900
692.75	0.017400
693.00	0.015912
693.25	0.015070
693.50	0.016931
693.75	0.015874
694.00	0.015159
694.25	0.015678
694.50	0.015178
694.75	0.016343
695.00	0.014342
695.25	0.014216
695.50	0.015526
695.75	0.013925
696.00	0.015311
696.25	0.015039
696.50	0.014083
696.75	0.014368
697.00	0.012722
697.25	0.013064
697.50	0.013146
697.75	0.012931
698.00	0.013134
698.25	0.014020
698.50	0.012982
698.75	0.012190
699.00	0.013330
699.25	0.011577
699.50	0.012747
699.75	0.010463
700.00	0.012994
