Wavelength (nm)	K12 abs N
220.00	0.077242
220.25	0.076044
220.50	0.078664
220.75	0.078076
221.00	0.075687
221.25	0.074889
221.50	0.076339
221.75	0.071870
222.00	0.075246
222.25	0.073565
222.50	0.072934
222.75	0.072171
223.00	0.072878
223.25	0.072038
223.50	0.070798
223.75	0.070700
224.00	0.069145
224.25	0.067436
224.50	0.068717
224.75	0.066588
225.00	0.063919
225.25	0.064395
225.50	0.063835
225.75	0.061530
226.00	0.061853
226.25	0.059919
226.50	0.060767
226.75	0.059408
227.00	0.056067
227.25	0.055359
227.50	0.053748
227.75	0.054098
228.00	0.054477
228.25	0.054175
228.50	0.053587
228.75	0.050386
229.00	0.049202
229.25	0.049377
229.50	0.047619
229.75	0.046386
230.00	0.047037
230.25	0.044313
230.50	0.043500
230.75	0.044782
231.00	0.042400
231.25	0.041153
231.50	0.040614
231.75	0.038898
232.00	0.038597
232.25	0.035592
232.50	0.035739
232.75	0.036908
233.00	0.035725
233.25	0.034317
233.50	0.033546
233.75	0.031788
234.00	0.032299
234.25	0.030842
234.50	0.029434
234.75	0.029883
235.00	0.029140
235.25	0.027452
235.50	0.026744
235.75	0.026093
236.00	0.025042
236.25	0.025407
236.50	0.024958
236.75	0.023627
237.00	0.023207
237.25	0.021491
237.50	0.021330
237.75	0.021876
238.00	0.021267
238.25	0.020244
238.50	0.019249
238.75	0.019347
239.00	0.019375
239.25	0.019831
239.50	0.019046
239.75	0.017841
240.00	0.018051
240.25	0.018864
240.50	0.016244
240.75	0.016377
241.00	0.015579
241.25	0.015502
241.50	0.016475
241.75	0.017134
242.00	0.015109
242.25	0.014892
242.50	0.013905
242.75	0.014122
243.00	0.014927
243.25	0.014003
243.50	0.012518
243.75	0.013316
244.00	0.013001
244.25	0.013372
244.50	0.012875
244.75	0.012616
245.00	0.012343
245.25	0.013246
245.50	0.011362
245.75	0.011432
246.00	0.011453
246.25	0.011355
246.50	0.012616
246.75	0.011418
247.00	0.013197
247.25	0.011327
247.50	0.011705
247.75	0.011257
248.00	0.012006
248.25	0.011103
248.50	0.010563
248.75	0.010682
249.00	0.0096877
249.25	0.010787
249.50	0.0095966
249.75	0.0096807
250.00	0.010143
250.25	0.0096737
250.50	0.0096106
250.75	0.010563
251.00	0.010521
251.25	0.010171
251.50	0.010745
251.75	0.0093655
252.00	0.010991
252.25	0.010269
252.50	0.0096737
252.75	0.010430
253.00	0.010346
253.25	0.010087
253.50	0.010325
253.75	0.010381
254.00	0.010206
254.25	0.010654
254.50	0.010900
254.75	0.0081046
255.00	0.0094215
255.25	0.0097647
255.50	0.0088961
255.75	0.010115
256.00	0.0088121
256.25	0.0095406
256.50	0.0097577
256.75	0.010304
257.00	0.0095966
257.25	0.0098138
257.50	0.011684
257.75	0.0099819
258.00	0.010206
258.25	0.011285
258.50	0.011852
258.75	0.010872
259.00	0.012139
259.25	0.011719
259.50	0.010998
259.75	0.012216
260.00	0.010963
260.25	0.010024
260.50	0.010907
260.75	0.010956
261.00	0.011327
261.25	0.011131
261.50	0.013162
261.75	0.011628
262.00	0.011537
262.25	0.011229
262.50	0.010283
262.75	0.010893
263.00	0.012595
263.25	0.011740
263.50	0.012083
263.75	0.012658
264.00	0.011859
264.25	0.012132
264.50	0.013064
264.75	0.012651
265.00	0.013092
265.25	0.011432
265.50	0.011922
265.75	0.012791
266.00	0.011740
266.25	0.013155
266.50	0.012483
266.75	0.015109
267.00	0.013183
267.25	0.014619
267.50	0.013246
267.75	0.013596
268.00	0.014353
268.25	0.015102
268.50	0.014220
268.75	0.014010
269.00	0.013624
269.25	0.014864
269.50	0.015334
269.75	0.014948
270.00	0.015922
270.25	0.016405
270.50	0.015313
270.75	0.016735
271.00	0.015796
271.25	0.017036
271.50	0.016146
271.75	0.015488
272.00	0.016244
272.25	0.016721
272.50	0.017533
272.75	0.017232
273.00	0.017708
273.25	0.017582
273.50	0.018297
273.75	0.016819
274.00	0.018360
274.25	0.017799
274.50	0.018353
274.75	0.018206
275.00	0.019866
275.25	0.019109
275.50	0.018773
275.75	0.020377
276.00	0.020412
276.25	0.018367
276.50	0.019256
276.75	0.019088
277.00	0.019305
277.25	0.020300
277.50	0.020685
277.75	0.021029
278.00	0.020314
278.25	0.020839
278.50	0.020181
278.75	0.020951
279.00	0.019677
279.25	0.020363
279.50	0.020510
279.75	0.020118
280.00	0.020328
280.25	0.021463
280.50	0.020937
280.75	0.021127
281.00	0.021022
281.25	0.021638
281.50	0.021414
281.75	0.019817
282.00	0.021295
282.25	0.021505
282.50	0.021890
282.75	0.022086
283.00	0.021596
283.25	0.022240
283.50	0.022401
283.75	0.021834
284.00	0.022044
284.25	0.020755
284.50	0.020398
284.75	0.020503
285.00	0.020846
285.25	0.021386
285.50	0.019824
285.75	0.020489
286.00	0.021148
286.25	0.020335
286.50	0.021988
286.75	0.019908
287.00	0.021890
287.25	0.019123
287.50	0.020069
287.75	0.020699
288.00	0.020776
288.25	0.020510
288.50	0.019726
288.75	0.020328
289.00	0.022465
289.25	0.022808
289.50	0.019501
289.75	0.019635
290.00	0.019039
290.25	0.018773
290.50	0.019067
290.75	0.018920
291.00	0.019242
291.25	0.019543
291.50	0.020412
291.75	0.020300
292.00	0.019887
292.25	0.019165
292.50	0.019207
292.75	0.019158
293.00	0.018885
293.25	0.020055
293.50	0.019859
293.75	0.017617
294.00	0.018780
294.25	0.019564
294.50	0.020216
294.75	0.019018
295.00	0.018822
295.25	0.020909
295.50	0.019747
295.75	0.020251
296.00	0.019466
296.25	0.019340
296.50	0.020104
296.75	0.018107
297.00	0.020517
297.25	0.019354
297.50	0.017687
297.75	0.019242
298.00	0.020083
298.25	0.019922
298.50	0.020300
298.75	0.019494
299.00	0.018248
299.25	0.017757
299.50	0.018689
299.75	0.018948
300.00	0.019628
300.25	0.019256
300.50	0.019368
300.75	0.017400
301.00	0.017022
301.25	0.018276
301.50	0.018353
301.75	0.017232
302.00	0.018927
302.25	0.017204
302.50	0.017456
302.75	0.018129
303.00	0.015453
303.25	0.015726
303.50	0.015621
303.75	0.014451
304.00	0.016847
304.25	0.016076
304.50	0.016517
304.75	0.015144
305.00	0.014829
305.25	0.015999
305.50	0.014262
305.75	0.014724
306.00	0.014885
306.25	0.014108
306.50	0.013232
306.75	0.015144
307.00	0.012139
307.25	0.014031
307.50	0.014094
307.75	0.013218
308.00	0.012560
308.25	0.012833
308.50	0.012945
308.75	0.012469
309.00	0.012364
309.25	0.011474
309.50	0.011922
309.75	0.010829
310.00	0.013975
310.25	0.011859
310.50	0.0084758
310.75	0.012511
311.00	0.0078174
311.25	0.0060732
311.50	0.010192
311.75	0.0095546
312.00	0.010402
312.25	0.011068
312.50	0.0096667
312.75	0.010094
313.00	0.0088821
313.25	0.0097647
313.50	0.0091483
313.75	0.013933
314.00	0.010185
314.25	0.011250
314.50	0.0074321
314.75	0.010984
315.00	0.0074672
315.25	0.011194
315.50	0.0065635
315.75	0.010241
316.00	0.0045111
316.25	0.011656
316.50	0.011019
316.75	0.0058070
317.00	0.0061643
317.25	0.0094565
317.50	0.0046372
317.75	0.0052396
318.00	0.0062133
318.25	0.0070188
318.50	0.0052746
318.75	0.0073130
319.00	0.0075232
319.25	0.011803
319.50	0.0051836
319.75	0.0030471
320.00	0.0086229
320.25	0.0031522
320.50	0.010283
320.75	0.0074742
321.00	0.0056249
321.25	0.0077053
321.50	0.012279
321.75	0.0098558
322.00	0.0062623
322.25	0.0079925
322.50	0.0049734
322.75	0.0067807
323.00	0.0091623
323.25	0.0068367
323.50	0.0091273
323.75	0.0080836
324.00	0.0057930
324.25	0.0073060
324.50	0.0059611
324.75	0.0051976
325.00	0.0084548
325.25	0.0086580
325.50	0.0060802
325.75	0.0060312
326.00	0.0094986
326.25	0.0095546
326.50	0.010430
326.75	0.0064725
327.00	0.0052466
327.25	0.0053867
327.50	0.0045321
327.75	0.010570
328.00	0.0072150
328.25	0.0076703
328.50	0.0073060
328.75	0.011201
329.00	0.0063744
329.25	0.0072080
329.50	0.0095196
329.75	0.010584
330.00	0.0045742
330.25	0.010290
330.50	0.0075792
330.75	0.0085739
331.00	0.0085599
331.25	0.0046022
331.50	0.0074251
331.75	0.0087140
332.00	0.0086930
332.25	0.0030751
332.50	0.0092744
332.75	0.0066266
333.00	0.012174
333.25	0.010794
333.50	0.0097227
333.75	0.010935
334.00	0.010353
334.25	0.0069978
334.50	0.011726
334.75	0.0048684
335.00	0.012385
335.25	0.0058911
335.50	0.0089662
335.75	0.0096457
336.00	0.0053517
336.25	0.0063254
336.50	0.014682
336.75	0.0099749
337.00	0.010458
337.25	0.010353
337.50	0.0084829
337.75	0.0080696
338.00	0.0098768
338.25	0.0074391
338.50	0.0063954
338.75	0.010535
339.00	0.012041
339.25	0.012434
339.50	0.010360
339.75	0.012861
340.00	0.0089942
340.25	0.011915
340.50	0.011369
340.75	0.0072290
341.00	0.010787
341.25	0.0099749
341.50	0.010900
341.75	0.010808
342.00	0.0097157
342.25	0.011663
342.50	0.011418
342.75	0.010907
343.00	0.013757
343.25	0.012223
343.50	0.013821
343.75	0.013386
344.00	0.014038
344.25	0.014409
344.50	0.012637
344.75	0.011397
345.00	0.012742
345.25	0.015985
345.50	0.017659
345.75	0.014591
346.00	0.015432
346.25	0.017295
346.50	0.017575
346.75	0.015845
347.00	0.017988
347.25	0.019445
347.50	0.015677
347.75	0.012847
348.00	0.020146
348.25	0.015649
348.50	0.016566
348.75	0.017946
349.00	0.015579
349.25	0.018269
349.50	0.016608
349.75	0.017078
350.00	0.020573
350.25	0.017981
350.50	0.019067
350.75	0.017757
351.00	0.017414
351.25	0.015327
351.50	0.017624
351.75	0.016945
352.00	0.015964
352.25	0.013926
352.50	0.019992
352.75	0.017722
353.00	0.020727
353.25	0.016160
353.50	0.015810
353.75	0.017659
354.00	0.022661
354.25	0.018374
354.50	0.017820
354.75	0.016672
355.00	0.017519
355.25	0.018255
355.50	0.018640
355.75	0.017687
356.00	0.016454
356.25	0.018871
356.50	0.019586
356.75	0.018325
357.00	0.017701
357.25	0.016055
357.50	0.019109
357.75	0.018416
358.00	0.020041
358.25	0.016363
358.50	0.018941
358.75	0.020958
359.00	0.017267
359.25	0.019263
359.50	0.019628
359.75	0.018479
360.00	0.017491
360.25	0.018654
360.50	0.022626
360.75	0.020104
361.00	0.018234
361.25	0.018920
361.50	0.019607
361.75	0.018325
362.00	0.019382
362.25	0.021183
362.50	0.019992
362.75	0.020559
363.00	0.018318
363.25	0.024671
363.50	0.020923
363.75	0.018185
364.00	0.022689
364.25	0.021007
364.50	0.019950
364.75	0.022408
365.00	0.023382
365.25	0.020300
365.50	0.023347
365.75	0.021547
366.00	0.022121
366.25	0.019445
366.50	0.021967
366.75	0.023494
367.00	0.020398
367.25	0.020769
367.50	0.019943
367.75	0.022422
368.00	0.019515
368.25	0.021981
368.50	0.020006
368.75	0.020237
369.00	0.020496
369.25	0.020398
369.50	0.020776
369.75	0.019368
370.00	0.018107
370.25	0.019852
370.50	0.018150
370.75	0.019803
371.00	0.016728
371.25	0.019922
371.50	0.019431
371.75	0.017246
372.00	0.018465
372.25	0.017295
372.50	0.016230
372.75	0.015313
373.00	0.015425
373.25	0.013288
373.50	0.015102
373.75	0.015186
374.00	0.014892
374.25	0.014416
374.50	0.012651
374.75	0.012216
375.00	0.013148
375.25	0.013120
375.50	0.011691
375.75	0.014003
376.00	0.012903
376.25	0.014185
376.50	0.011250
376.75	0.011068
377.00	0.012588
377.25	0.0095966
377.50	0.0095616
377.75	0.0094635
378.00	0.012307
378.25	0.0084969
378.50	0.0092604
378.75	0.010213
379.00	0.0096947
379.25	0.0095546
379.50	0.0097998
379.75	0.0097717
380.00	0.011775
380.25	0.010675
380.50	0.0089592
380.75	0.0077824
381.00	0.0095616
381.25	0.0069908
381.50	0.0076703
381.75	0.0091973
382.00	0.0087000
382.25	0.0092604
382.50	0.0090012
382.75	0.0079855
383.00	0.0080626
383.25	0.0084548
383.50	0.0091413
383.75	0.011306
384.00	0.0094355
384.25	0.0081887
384.50	0.0087771
384.75	0.0091903
385.00	0.010332
385.25	0.0075862
385.50	0.0084829
385.75	0.010129
386.00	0.0075652
386.25	0.0079295
386.50	0.0076843
386.75	0.0092044
387.00	0.0099258
387.25	0.0077824
387.50	0.0096176
387.75	0.0085879
388.00	0.0068507
388.25	0.0069628
388.50	0.010661
388.75	0.010486
389.00	0.0096877
389.25	0.011152
389.50	0.011376
389.75	0.0083568
390.00	0.0086860
390.25	0.0089942
390.50	0.0098768
390.75	0.0084338
391.00	0.0076563
391.25	0.010500
391.50	0.010234
391.75	0.010521
392.00	0.0085459
392.25	0.011943
392.50	0.011411
392.75	0.011089
393.00	0.0087210
393.25	0.012798
393.50	0.010066
393.75	0.0094775
394.00	0.0085529
394.25	0.010815
394.50	0.011159
394.75	0.0098908
395.00	0.012455
395.25	0.011110
395.50	0.010998
395.75	0.012469
396.00	0.012392
396.25	0.012441
396.50	0.012244
396.75	0.012532
397.00	0.012644
397.25	0.011509
397.50	0.011537
397.75	0.014458
398.00	0.011194
398.25	0.013807
398.50	0.012441
398.75	0.013267
399.00	0.011964
399.25	0.012448
399.50	0.013631
399.75	0.011467
400.00	0.014794
400.25	0.014983
400.50	0.012672
400.75	0.014108
401.00	0.012595
401.25	0.014248
401.50	0.012819
401.75	0.012735
402.00	0.012307
402.25	0.012868
402.50	0.015705
402.75	0.014290
403.00	0.014416
403.25	0.014738
403.50	0.015271
403.75	0.014696
404.00	0.013814
404.25	0.015102
404.50	0.011747
404.75	0.015796
405.00	0.015011
405.25	0.013624
405.50	0.015523
405.75	0.013134
406.00	0.015418
406.25	0.012980
406.50	0.016286
406.75	0.015551
407.00	0.014815
407.25	0.014724
407.50	0.014864
407.75	0.014969
408.00	0.014500
408.25	0.013337
408.50	0.014584
408.75	0.015985
409.00	0.015824
409.25	0.014416
409.50	0.014325
409.75	0.015383
410.00	0.016342
410.25	0.014311
410.50	0.013169
410.75	0.014717
411.00	0.014213
411.25	0.015964
411.50	0.014381
411.75	0.013113
412.00	0.016251
412.25	0.016090
412.50	0.016714
412.75	0.015425
413.00	0.014311
413.25	0.016714
413.50	0.015684
413.75	0.015600
414.00	0.016952
414.25	0.014843
414.50	0.015565
414.75	0.015306
415.00	0.016195
415.25	0.015922
415.50	0.014563
415.75	0.015845
416.00	0.014717
416.25	0.015264
416.50	0.016538
416.75	0.016987
417.00	0.017365
417.25	0.014353
417.50	0.016405
417.75	0.014899
418.00	0.016440
418.25	0.015817
418.50	0.016819
418.75	0.018058
419.00	0.017400
419.25	0.016650
419.50	0.018822
419.75	0.015544
420.00	0.016538
420.25	0.015586
420.50	0.018892
420.75	0.017799
421.00	0.016749
421.25	0.018150
421.50	0.017449
421.75	0.018093
422.00	0.017225
422.25	0.018269
422.50	0.016545
422.75	0.018521
423.00	0.017582
423.25	0.016384
423.50	0.018626
423.75	0.017757
424.00	0.017575
424.25	0.016847
424.50	0.018213
424.75	0.018058
425.00	0.017911
425.25	0.017792
425.50	0.017806
425.75	0.018192
426.00	0.017218
426.25	0.018696
426.50	0.017568
426.75	0.015453
427.00	0.017813
427.25	0.015852
427.50	0.016735
427.75	0.017232
428.00	0.017841
428.25	0.016377
428.50	0.017498
428.75	0.016328
429.00	0.015985
429.25	0.015299
429.50	0.014780
429.75	0.015432
430.00	0.014220
430.25	0.015495
430.50	0.014311
430.75	0.014906
431.00	0.015691
431.25	0.016286
431.50	0.014017
431.75	0.013218
432.00	0.013905
432.25	0.013933
432.50	0.012146
432.75	0.013043
433.00	0.013141
433.25	0.013211
433.50	0.013253
433.75	0.011432
434.00	0.012062
434.25	0.012973
434.50	0.012006
434.75	0.012371
435.00	0.012118
435.25	0.0091973
435.50	0.012216
435.75	0.010956
436.00	0.010136
436.25	0.0096176
436.50	0.010584
436.75	0.0089101
437.00	0.0096597
437.25	0.0081746
437.50	0.0094845
437.75	0.0085669
438.00	0.0092114
438.25	0.0079085
438.50	0.0078034
438.75	0.0075022
439.00	0.0072990
439.25	0.0077824
439.50	0.0064725
439.75	0.0063884
440.00	0.0077684
440.25	0.0055899
440.50	0.0055688
440.75	0.0083428
441.00	0.0062063
441.25	0.0049104
441.50	0.0055058
441.75	0.0045391
442.00	0.0054217
442.25	0.0053167
442.50	0.0066476
442.75	0.0052746
443.00	0.0059821
443.25	0.0057440
443.50	0.0037616
443.75	0.0044551
444.00	0.0040348
444.25	0.0043220
444.50	0.0059681
444.75	0.0045531
445.00	0.0046372
445.25	0.0029420
445.50	0.0038457
445.75	0.0039928
446.00	0.0049034
446.25	0.0032502
446.50	0.0036986
446.75	0.0043710
447.00	0.0043850
447.25	0.0043640
447.50	0.0037966
447.75	0.0030401
448.00	0.0029771
448.25	0.0027879
448.50	0.0032152
448.75	0.0028300
449.00	0.0033133
449.25	0.0033903
449.50	0.0021995
449.75	0.0020944
450.00	0.0027249
450.25	0.0032643
450.50	0.0023186
450.75	0.0034464
451.00	0.0036145
451.25	0.0034254
451.50	0.0027739
451.75	0.0022415
452.00	0.0011138
452.25	0.0020384
452.50	0.0028440
452.75	0.0014220
453.00	0.0029911
453.25	0.0037616
453.50	0.0021575
453.75	0.0023046
454.00	0.0037966
454.25	0.0016321
454.50	0.0016041
454.75	0.0018213
455.00	0.0036215
455.25	0.0022906
455.50	0.0034954
455.75	0.0029350
456.00	0.0027669
456.25	0.0013449
456.50	0.0023746
456.75	0.0026198
457.00	0.0015481
457.25	0.0018633
457.50	0.0010157
457.75	0.0018773
458.00	0.0013099
458.25	0.0017442
458.50	0.0013659
458.75	0.0028580
459.00	0.0013309
459.25	0.0026478
459.50	0.0011558
459.75	0.00045531
460.00	0.0019123
460.25	0.0016181
460.50	0.0029911
460.75	0.0022626
461.00	0.0017092
461.25	0.0016882
461.50	0.0013940
461.75	0.0019824
462.00	0.0021505
462.25	0.00086860
462.50	0.0026688
462.75	0.0035024
463.00	0.0028930
463.25	0.0017932
463.50	0.0020384
463.75	0.0023746
464.00	0.0026338
464.25	0.0018072
464.50	0.00085459
464.75	0.0011278
465.00	0.0024237
465.25	0.0020034
465.50	0.0030191
465.75	0.0012118
466.00	0.0023746
466.25	0.00089662
466.50	0.0014850
466.75	0.0014360
467.00	0.0015200
467.25	0.0016742
467.50	0.0023746
467.75	0.0024867
468.00	0.0017652
468.25	0.0019403
468.50	0.0030051
468.75	0.0011278
469.00	0.0018002
469.25	0.0028370
469.50	0.0019754
469.75	0.0017932
470.00	0.0011068
470.25	0.0026688
470.50	0.0030821
470.75	0.00072150
471.00	0.0014500
471.25	0.00078454
471.50	0.0010717
471.75	0.0023816
472.00	0.0017792
472.25	0.0028159
472.50	0.00071449
472.75	0.0014920
473.00	0.0022275
473.25	0.00044130
473.50	0.0021645
473.75	0.0014430
474.00	0.0023957
474.25	0.0010928
474.50	0.0015831
474.75	0.0016672
475.00	0.0012399
475.25	0.0019614
475.50	0.0025147
475.75	0.00077053
476.00	0.0011558
476.25	0.0031872
476.50	0.0013029
476.75	0.0016321
477.00	0.0029841
477.25	0.0024027
477.50	0.0020804
477.75	0.00051135
478.00	0.0015551
478.25	0.0012609
478.50	0.0011208
478.75	0.0020524
479.00	0.0010087
479.25	0.0019053
479.50	0.0012258
479.75	0.0010998
480.00	0.0015411
480.25	0.0012749
480.50	0.0015551
480.75	0.0015060
481.00	0.0022766
481.25	0.00078454
481.50	0.0032152
481.75	0.0017302
482.00	0.0027809
482.25	0.00072990
482.50	0.00014010
482.75	0.0018983
483.00	0.0016111
483.25	0.0024167
483.50	0.0021155
483.75	0.0014850
484.00	0.0017372
484.25	0.00075582
484.50	0.0013589
484.75	0.0020804
485.00	0.0025077
485.25	0.0016742
485.50	0.0018423
485.75	0.0014850
486.00	0.0016531
486.25	0.0038457
486.50	0.0015271
486.75	0.00083358
487.00	0.0011628
487.25	0.0019543
487.50	0.0022696
487.75	0.00065145
488.00	0.00094565
488.25	0.0019053
488.50	0.0036915
488.75	0.0015411
489.00	0.0027179
489.25	0.0014715
489.50	0.0012819
489.75	0.0018633
490.00	0.0016321
490.25	0.0011138
490.50	0.0017512
490.75	0.0019824
491.00	0.0021014
491.25	0.0023256
491.50	0.0010017
491.75	0.00047633
492.00	0.00092464
492.25	0.00085459
492.50	0.0012048
492.75	0.00070889
493.00	0.0021715
493.25	0.0018563
493.50	0.00082657
493.75	0.0019263
494.00	0.00056739
494.25	0.00094565
494.50	0.0020104
494.75	0.0029210
495.00	0.0017792
495.25	0.0021225
495.50	0.0020384
495.75	0.00067246
496.00	0.0018213
496.25	0.0015271
496.50	0.0010577
496.75	0.00046232
497.00	0.00022415
497.25	0.00084058
497.50	0.0024797
497.75	0.0034254
498.00	0.00073551
498.25	0.0026548
498.50	0.0026198
498.75	0.0021435
499.00	0.0018423
499.25	0.0017022
499.50	0.0024657
499.75	0.0016321
500.00	0.0015901
500.25	0.0014430
500.50	0.0017652
500.75	0.0024867
501.00	0.0021295
501.25	0.0026338
501.50	0.00070048
501.75	0.0028229
502.00	0.0039227
502.25	0.0018353
502.50	0.0026058
502.75	0.00095966
503.00	0.0031101
503.25	0.0021575
503.50	0.0027599
503.75	0.0016391
504.00	0.0012399
504.25	0.0023186
504.50	0.00072850
504.75	0.0035655
505.00	0.0018143
505.25	0.0028159
505.50	0.0034884
505.75	0.0012329
506.00	0.00072150
506.25	0.0024867
506.50	0.0028229
506.75	0.0018072
507.00	0.0024727
507.25	0.0017862
507.50	0.0042870
507.75	0.0032502
508.00	0.0018913
508.25	0.0014430
508.50	0.0014500
508.75	0.0024587
509.00	0.0016111
509.25	0.0035234
509.50	0.0030681
509.75	0.0036495
510.00	0.0033133
510.25	0.0025428
510.50	0.0033693
510.75	0.0026829
511.00	0.0035234
511.25	0.0028440
511.50	0.0015341
511.75	0.0038877
512.00	0.0028370
512.25	0.0046442
512.50	0.0040628
512.75	0.0027459
513.00	0.0019754
513.25	0.0035515
513.50	0.0042940
513.75	0.00087560
514.00	0.0044831
514.25	0.0027039
514.50	0.0036986
514.75	0.0031312
515.00	0.0022415
515.25	0.0038947
515.50	0.0028089
515.75	0.0040488
516.00	0.0022766
516.25	0.0036915
516.50	0.0036775
516.75	0.0038877
517.00	0.0035164
517.25	0.0045391
517.50	0.0033763
517.75	0.0048263
518.00	0.0051345
518.25	0.0027529
518.50	0.0031031
518.75	0.0047002
519.00	0.0041679
519.25	0.0044271
519.50	0.0029771
519.75	0.0043710
520.00	0.0032923
520.25	0.0023396
520.50	0.0043150
520.75	0.0023886
521.00	0.0048754
521.25	0.0041889
521.50	0.0026058
521.75	0.0050925
522.00	0.0055829
522.25	0.0056949
522.50	0.0038106
522.75	0.0048614
523.00	0.0038106
523.25	0.0049524
523.50	0.0033133
523.75	0.0038527
524.00	0.0042519
524.25	0.0056109
524.50	0.0060872
524.75	0.0029630
525.00	0.0048123
525.25	0.0050995
525.50	0.0067316
525.75	0.0046722
526.00	0.0019614
526.25	0.0062413
526.50	0.0066896
526.75	0.0047773
527.00	0.0044200
527.25	0.0044621
527.50	0.0062833
527.75	0.0053027
528.00	0.0058210
528.25	0.0042870
528.50	0.0058280
528.75	0.0055268
529.00	0.0055899
529.25	0.0043080
529.50	0.0036145
529.75	0.0078664
530.00	0.0055268
530.25	0.0052116
530.50	0.0054428
530.75	0.0057650
531.00	0.0062553
531.25	0.0057650
531.50	0.0051906
531.75	0.0047213
532.00	0.0063534
532.25	0.0061783
532.50	0.0056739
532.75	0.0058911
533.00	0.0058000
533.25	0.0067106
533.50	0.0045742
533.75	0.0063324
534.00	0.0069768
534.25	0.0069908
534.50	0.0071309
534.75	0.0050715
535.00	0.0068507
535.25	0.0078734
535.50	0.0069908
535.75	0.0070539
536.00	0.0064164
536.25	0.0073271
536.50	0.0078034
536.75	0.0082797
537.00	0.0063744
537.25	0.0070959
537.50	0.0074461
537.75	0.0085879
538.00	0.0081957
538.25	0.0094215
538.50	0.0081116
538.75	0.0078384
539.00	0.010703
539.25	0.0078454
539.50	0.0080135
539.75	0.0079225
540.00	0.0074882
540.25	0.0090222
540.50	0.0072780
540.75	0.0091483
541.00	0.0084338
541.25	0.0082587
541.50	0.0089242
541.75	0.0093795
542.00	0.010038
542.25	0.0098908
542.50	0.0097157
542.75	0.0069278
543.00	0.0085319
543.25	0.0093444
543.50	0.0099258
543.75	0.0086510
544.00	0.0093795
544.25	0.011565
544.50	0.010703
544.75	0.010857
545.00	0.0094565
545.25	0.010668
545.50	0.011754
545.75	0.010248
546.00	0.0089942
546.25	0.0092044
546.50	0.010409
546.75	0.011838
547.00	0.010136
547.25	0.010038
547.50	0.011180
547.75	0.010535
548.00	0.010766
548.25	0.011453
548.50	0.011586
548.75	0.012132
549.00	0.012742
549.25	0.010444
549.50	0.011404
549.75	0.012882
550.00	0.013708
550.25	0.013302
550.50	0.012994
550.75	0.011866
551.00	0.014094
551.25	0.010535
551.50	0.012644
551.75	0.011971
552.00	0.011159
552.25	0.013898
552.50	0.012181
552.75	0.013863
553.00	0.012945
553.25	0.012756
553.50	0.013407
553.75	0.011691
554.00	0.014346
554.25	0.013505
554.50	0.013491
554.75	0.013828
555.00	0.013800
555.25	0.014878
555.50	0.014185
555.75	0.016363
556.00	0.012763
556.25	0.013722
556.50	0.016181
556.75	0.014962
557.00	0.014290
557.25	0.012672
557.50	0.016545
557.75	0.015383
558.00	0.014745
558.25	0.016244
558.50	0.015537
558.75	0.016903
559.00	0.015102
559.25	0.015922
559.50	0.013652
559.75	0.017400
560.00	0.016882
560.25	0.016889
560.50	0.016349
560.75	0.016034
561.00	0.019130
561.25	0.016664
561.50	0.019754
561.75	0.016819
562.00	0.017071
562.25	0.017526
562.50	0.018563
562.75	0.019943
563.00	0.017232
563.25	0.018465
563.50	0.019298
563.75	0.017239
564.00	0.019186
564.25	0.019095
564.50	0.019894
564.75	0.018234
565.00	0.019880
565.25	0.018402
565.50	0.018353
565.75	0.020146
566.00	0.019263
566.25	0.018759
566.50	0.020384
566.75	0.019733
567.00	0.019361
567.25	0.020426
567.50	0.020293
567.75	0.019761
568.00	0.021862
568.25	0.020433
568.50	0.021050
568.75	0.021673
569.00	0.020811
569.25	0.019782
569.50	0.019873
569.75	0.021883
570.00	0.023515
570.25	0.020664
570.50	0.022878
570.75	0.021057
571.00	0.022962
571.25	0.024615
571.50	0.022878
571.75	0.022261
572.00	0.022128
572.25	0.022654
572.50	0.024027
572.75	0.022338
573.00	0.023116
573.25	0.024237
573.50	0.026850
573.75	0.023725
574.00	0.024846
574.25	0.025350
574.50	0.023312
574.75	0.025203
575.00	0.024216
575.25	0.027207
575.50	0.026345
575.75	0.027060
576.00	0.027438
576.25	0.025168
576.50	0.027585
576.75	0.026548
577.00	0.026478
577.25	0.026331
577.50	0.026969
577.75	0.027431
578.00	0.026072
578.25	0.028222
578.50	0.026920
578.75	0.028412
579.00	0.027466
579.25	0.027368
579.50	0.029511
579.75	0.028846
580.00	0.029729
580.25	0.027298
580.50	0.028650
580.75	0.028082
581.00	0.029357
581.25	0.030037
581.50	0.029890
581.75	0.031550
582.00	0.029974
582.25	0.031221
582.50	0.032432
582.75	0.030758
583.00	0.031774
583.25	0.030695
583.50	0.030436
583.75	0.031620
584.00	0.033868
584.25	0.030149
584.50	0.033357
584.75	0.033693
585.00	0.033560
585.25	0.034177
585.50	0.033189
585.75	0.033532
586.00	0.033406
586.25	0.036390
586.50	0.034436
586.75	0.032804
587.00	0.034870
587.25	0.035402
587.50	0.035465
587.75	0.035458
588.00	0.037238
588.25	0.037245
588.50	0.036103
588.75	0.037777
589.00	0.035381
589.25	0.037511
589.50	0.036922
589.75	0.036880
590.00	0.038351
590.25	0.038639
590.50	0.039479
590.75	0.037994
591.00	0.040005
591.25	0.038379
591.50	0.039164
591.75	0.038632
592.00	0.040537
592.25	0.041756
592.50	0.040327
592.75	0.041427
593.00	0.042491
593.25	0.042309
593.50	0.041679
593.75	0.042092
594.00	0.044250
594.25	0.041833
594.50	0.043269
594.75	0.041258
595.00	0.045770
595.25	0.045160
595.50	0.045587
595.75	0.045728
596.00	0.045342
596.25	0.046911
596.50	0.045938
596.75	0.046715
597.00	0.045524
597.25	0.047220
597.50	0.047521
597.75	0.047843
598.00	0.048782
598.25	0.048796
598.50	0.050904
598.75	0.048929
599.00	0.049741
599.25	0.050078
599.50	0.050008
599.75	0.051184
600.00	0.050596
600.25	0.049657
600.50	0.051086
600.75	0.051829
601.00	0.053167
601.25	0.052417
601.50	0.053377
601.75	0.053874
602.00	0.054778
602.25	0.053902
602.50	0.054266
602.75	0.055871
603.00	0.055254
603.25	0.055653
603.50	0.056214
603.75	0.057314
604.00	0.057573
604.25	0.058042
604.50	0.056655
604.75	0.055990
605.00	0.058077
605.25	0.057804
605.50	0.059331
605.75	0.059205
606.00	0.060515
606.25	0.060312
606.50	0.062035
606.75	0.059947
607.00	0.058974
607.25	0.062616
607.50	0.063898
607.75	0.061586
608.00	0.062931
608.25	0.063464
608.50	0.064465
608.75	0.063562
609.00	0.064774
609.25	0.064816
609.50	0.064795
609.75	0.065845
610.00	0.065446
610.25	0.066609
610.50	0.065986
610.75	0.068836
611.00	0.067450
611.25	0.069138
611.50	0.068080
611.75	0.069901
612.00	0.070532
612.25	0.071036
612.50	0.070735
612.75	0.070371
613.00	0.073229
613.25	0.071793
613.50	0.071288
613.75	0.071253
614.00	0.072990
614.25	0.072766
614.50	0.074167
614.75	0.073404
615.00	0.075407
615.25	0.075015
615.50	0.075239
615.75	0.075687
616.00	0.074959
616.25	0.076822
616.50	0.077901
616.75	0.077452
617.00	0.076507
617.25	0.078349
617.50	0.078377
617.75	0.080289
618.00	0.078552
618.25	0.079708
618.50	0.078790
618.75	0.081879
619.00	0.082363
619.25	0.079946
619.50	0.081992
619.75	0.083533
620.00	0.084541
620.25	0.084366
620.50	0.085088
620.75	0.083841
621.00	0.084772
621.25	0.086117
621.50	0.085088
621.75	0.086594
622.00	0.087224
622.25	0.088842
622.50	0.086867
622.75	0.087841
623.00	0.089473
623.25	0.089781
623.50	0.088891
623.75	0.088730
624.00	0.090650
624.25	0.092737
624.50	0.091483
624.75	0.092121
625.00	0.090474
625.25	0.093283
625.50	0.093094
625.75	0.093458
626.00	0.093921
626.25	0.096562
626.50	0.096330
626.75	0.095210
627.00	0.096653
627.25	0.096758
627.50	0.098985
627.75	0.096716
628.00	0.098201
628.25	0.098621
628.50	0.099230
628.75	0.10106
629.00	0.098803
629.25	0.10184
629.50	0.10056
629.75	0.10249
630.00	0.10463
630.25	0.10336
630.50	0.10446
630.75	0.10470
631.00	0.10514
631.25	0.10708
631.50	0.10381
631.75	0.10723
632.00	0.10804
632.25	0.10926
632.50	0.10927
632.75	0.10802
633.00	0.11047
633.25	0.11142
633.50	0.10864
633.75	0.11046
634.00	0.11103
634.25	0.11197
634.50	0.11499
634.75	0.11388
635.00	0.11652
635.25	0.11471
635.50	0.11842
635.75	0.11660
636.00	0.11879
636.25	0.11782
636.50	0.12025
636.75	0.12127
637.00	0.12060
637.25	0.12325
637.50	0.12280
637.75	0.12307
638.00	0.12380
638.25	0.12289
638.50	0.12590
638.75	0.12462
639.00	0.12647
639.25	0.12602
639.50	0.12513
639.75	0.12968
640.00	0.13025
640.25	0.13002
640.50	0.13061
640.75	0.13126
641.00	0.13196
641.25	0.13183
641.50	0.13231
641.75	0.13282
642.00	0.13680
642.25	0.13446
642.50	0.13643
642.75	0.13942
643.00	0.13817
643.25	0.14026
643.50	0.13934
643.75	0.14211
644.00	0.14000
644.25	0.14204
644.50	0.14337
644.75	0.14313
645.00	0.14407
645.25	0.14607
645.50	0.14836
645.75	0.14609
646.00	0.14936
646.25	0.15020
646.50	0.15175
646.75	0.15203
647.00	0.15296
647.25	0.15385
647.50	0.15378
647.75	0.15756
648.00	0.15626
648.25	0.15645
648.50	0.16055
648.75	0.16019
649.00	0.16187
649.25	0.16044
649.50	0.16244
649.75	0.16389
650.00	0.16585
650.25	0.16648
650.50	0.16611
650.75	0.16831
651.00	0.16955
651.25	0.17219
651.50	0.17160
651.75	0.17081
652.00	0.17474
652.25	0.17608
652.50	0.17679
652.75	0.17670
653.00	0.18076
653.25	0.18042
653.50	0.17999
653.75	0.18161
654.00	0.18166
654.25	0.18638
654.50	0.18479
654.75	0.18773
655.00	0.18794
655.25	0.18910
655.50	0.18948
655.75	0.19171
656.00	0.19347
656.25	0.19326
656.50	0.19764
656.75	0.19773
657.00	0.20020
657.25	0.19922
657.50	0.19955
657.75	0.20223
658.00	0.20311
658.25	0.20483
658.50	0.20544
658.75	0.20913
659.00	0.20886
659.25	0.21026
659.50	0.21265
659.75	0.21391
660.00	0.21651
660.25	0.21600
660.50	0.21854
660.75	0.21957
661.00	0.22018
661.25	0.22254
661.50	0.22272
661.75	0.22381
662.00	0.22653
662.25	0.22904
662.50	0.22934
662.75	0.23069
663.00	0.23356
663.25	0.23314
663.50	0.23620
663.75	0.23583
664.00	0.23807
664.25	0.24099
664.50	0.24182
664.75	0.24181
665.00	0.24429
665.25	0.24646
665.50	0.24631
665.75	0.24795
666.00	0.24932
666.25	0.24990
666.50	0.25232
666.75	0.25444
667.00	0.25452
667.25	0.25615
667.50	0.25786
667.75	0.25870
668.00	0.26010
668.25	0.26211
668.50	0.26272
668.75	0.26500
669.00	0.26602
669.25	0.26733
669.50	0.26747
669.75	0.26959
670.00	0.27076
670.25	0.27068
670.50	0.27548
670.75	0.27317
671.00	0.27649
671.25	0.27712
671.50	0.28047
671.75	0.28042
672.00	0.27953
672.25	0.28296
672.50	0.28117
672.75	0.28518
673.00	0.28597
673.25	0.28646
673.50	0.28810
673.75	0.28765
674.00	0.29041
674.25	0.28891
674.50	0.29214
674.75	0.29218
675.00	0.29411
675.25	0.29768
675.50	0.29682
675.75	0.29773
676.00	0.29754
676.25	0.29962
676.50	0.30057
676.75	0.30295
677.00	0.30332
677.25	0.30360
677.50	0.30596
677.75	0.30430
678.00	0.30773
678.25	0.30586
678.50	0.30736
678.75	0.30931
679.00	0.30879
679.25	0.31095
679.50	0.31090
679.75	0.31293
680.00	0.31328
680.25	0.31225
680.50	0.31377
680.75	0.31410
681.00	0.31495
681.25	0.31534
681.50	0.31776
681.75	0.31651
682.00	0.31798
682.25	0.31832
682.50	0.31830
682.75	0.31927
683.00	0.31955
683.25	0.32073
683.50	0.32103
683.75	0.32195
684.00	0.32198
684.25	0.32130
684.50	0.32411
684.75	0.32395
685.00	0.32376
685.25	0.32606
685.50	0.32667
685.75	0.32547
686.00	0.32670
686.25	0.32615
686.50	0.32622
686.75	0.32768
687.00	0.32855
687.25	0.33007
687.50	0.32852
687.75	0.32919
688.00	0.32867
688.25	0.33095
688.50	0.33094
688.75	0.33208
689.00	0.33258
689.25	0.33258
689.50	0.33230
689.75	0.33301
690.00	0.33297
690.25	0.33375
690.50	0.33337
690.75	0.33452
691.00	0.33534
691.25	0.33689
691.50	0.33673
691.75	0.33686
692.00	0.33753
692.25	0.33916
692.50	0.33886
692.75	0.33959
693.00	0.34031
693.25	0.34032
693.50	0.34053
693.75	0.34186
694.00	0.34130
694.25	0.34310
694.50	0.34341
694.75	0.34349
695.00	0.34473
695.25	0.34565
695.50	0.34856
695.75	0.34729
696.00	0.34626
696.25	0.34896
696.50	0.34864
696.75	0.34971
697.00	0.35084
697.25	0.35460
697.50	0.35167
697.75	0.35641
698.00	0.35391
698.25	0.35775
698.50	0.35782
698.75	0.35807
699.00	0.36013
699.25	0.36086
699.50	0.36209
699.75	0.36299
700.00	0.36581
700.25	0.36588
700.50	0.36794
700.75	0.37051
701.00	0.37155
701.25	0.37301
701.50	0.37440
701.75	0.37686
702.00	0.37748
702.25	0.37640
702.50	0.38183
702.75	0.38257
703.00	0.38407
703.25	0.38616
703.50	0.38916
703.75	0.39036
704.00	0.39140
704.25	0.39391
704.50	0.39570
704.75	0.39812
705.00	0.39967
705.25	0.40269
705.50	0.40334
705.75	0.40544
706.00	0.41044
706.25	0.40958
706.50	0.41450
706.75	0.41671
707.00	0.41986
707.25	0.42259
707.50	0.42524
707.75	0.42734
708.00	0.42934
708.25	0.43153
708.50	0.43499
708.75	0.43693
709.00	0.43971
709.25	0.44441
709.50	0.44692
709.75	0.45135
710.00	0.45424
710.25	0.45616
710.50	0.45896
710.75	0.46088
711.00	0.46758
711.25	0.47128
711.50	0.47436
711.75	0.47769
712.00	0.48133
712.25	0.48580
712.50	0.48814
712.75	0.49147
713.00	0.49554
713.25	0.49814
713.50	0.50366
713.75	0.50674
714.00	0.51146
714.25	0.51275
714.50	0.51997
714.75	0.52452
715.00	0.52952
715.25	0.53672
715.50	0.53832
715.75	0.54645
716.00	0.54933
716.25	0.55548
716.50	0.55857
716.75	0.56317
717.00	0.56632
717.25	0.57393
717.50	0.57881
717.75	0.58200
718.00	0.58741
718.25	0.58805
718.50	0.59543
718.75	0.59921
719.00	0.60319
719.25	0.60994
719.50	0.61452
719.75	0.61870
720.00	0.62519
720.25	0.63032
720.50	0.63427
720.75	0.63999
721.00	0.64472
721.25	0.64895
721.50	0.65326
721.75	0.65993
722.00	0.66446
722.25	0.67041
722.50	0.67698
722.75	0.68025
723.00	0.68612
723.25	0.69172
723.50	0.69561
723.75	0.70125
724.00	0.70656
724.25	0.71400
724.50	0.71673
724.75	0.72350
725.00	0.72775
725.25	0.73476
725.50	0.73949
725.75	0.74424
726.00	0.75250
726.25	0.75574
726.50	0.76177
726.75	0.76508
727.00	0.77541
727.25	0.77740
727.50	0.78189
727.75	0.78756
728.00	0.79354
728.25	0.79962
728.50	0.80270
728.75	0.81206
729.00	0.81592
729.25	0.81964
729.50	0.82472
729.75	0.83061
730.00	0.83865
730.25	0.84224
730.50	0.84673
730.75	0.85239
731.00	0.85907
731.25	0.86126
731.50	0.86813
731.75	0.87191
732.00	0.87793
732.25	0.88227
732.50	0.88376
732.75	0.89010
733.00	0.89640
733.25	0.89768
733.50	0.90176
733.75	0.90332
734.00	0.91116
734.25	0.91286
734.50	0.92051
734.75	0.92257
735.00	0.92914
735.25	0.93152
735.50	0.93583
735.75	0.93918
736.00	0.94329
736.25	0.94487
736.50	0.94644
736.75	0.95107
737.00	0.95463
737.25	0.96213
737.50	0.96511
737.75	0.96708
738.00	0.97006
738.25	0.97266
738.50	0.97139
738.75	0.97949
739.00	0.97993
739.25	0.98099
739.50	0.98461
739.75	0.98367
740.00	0.98656
740.25	0.99261
740.50	0.98870
740.75	0.99216
741.00	0.99389
741.25	0.99700
741.50	0.99594
741.75	0.99730
742.00	0.99534
742.25	1.00000
742.50	0.99537
742.75	0.99839
743.00	0.99956
743.25	0.99686
743.50	0.99726
743.75	0.99898
744.00	0.99810
744.25	0.99567
744.50	0.99689
744.75	0.99509
745.00	0.99284
745.25	0.98922
745.50	0.98736
745.75	0.98910
746.00	0.98836
746.25	0.98756
746.50	0.98189
746.75	0.98124
747.00	0.98017
747.25	0.97412
747.50	0.97482
747.75	0.96812
748.00	0.96707
748.25	0.96260
748.50	0.96206
748.75	0.95693
749.00	0.95584
749.25	0.95104
749.50	0.94364
749.75	0.94055
750.00	0.93488
750.25	0.93521
750.50	0.93210
750.75	0.92752
751.00	0.92129
751.25	0.91520
751.50	0.90840
751.75	0.90697
752.00	0.90182
752.25	0.89411
752.50	0.88961
752.75	0.88625
753.00	0.88007
753.25	0.87291
753.50	0.86780
753.75	0.86419
754.00	0.85796
754.25	0.85050
754.50	0.84410
754.75	0.83703
755.00	0.82857
755.25	0.82165
755.50	0.81646
755.75	0.80911
756.00	0.80259
756.25	0.79316
756.50	0.78664
756.75	0.77873
757.00	0.77302
757.25	0.76769
757.50	0.75995
757.75	0.75329
758.00	0.74592
758.25	0.73836
758.50	0.73265
758.75	0.72653
759.00	0.71809
759.25	0.71056
759.50	0.70482
759.75	0.69865
760.00	0.69134
760.25	0.68256
760.50	0.67548
760.75	0.66751
761.00	0.66078
761.25	0.65538
761.50	0.64602
761.75	0.64144
762.00	0.63317
762.25	0.62532
762.50	0.61812
762.75	0.61325
763.00	0.60438
763.25	0.59678
763.50	0.58695
763.75	0.58172
764.00	0.57493
764.25	0.56984
764.50	0.56123
764.75	0.55481
765.00	0.54603
765.25	0.53937
765.50	0.53116
765.75	0.52372
766.00	0.51876
766.25	0.50957
766.50	0.50548
766.75	0.49505
767.00	0.49023
767.25	0.48284
767.50	0.47685
767.75	0.47017
768.00	0.46004
768.25	0.45643
768.50	0.44791
768.75	0.44171
769.00	0.43440
769.25	0.42940
769.50	0.42276
769.75	0.41752
770.00	0.41106
770.25	0.40269
770.50	0.39744
770.75	0.39055
771.00	0.38258
771.25	0.38022
771.50	0.37121
771.75	0.36851
772.00	0.36203
772.25	0.35261
772.50	0.34825
772.75	0.34158
773.00	0.33761
773.25	0.33178
773.50	0.32744
773.75	0.32500
774.00	0.31852
774.25	0.31532
774.50	0.30856
774.75	0.30229
775.00	0.29836
775.25	0.29263
775.50	0.28641
775.75	0.28225
776.00	0.27548
776.25	0.27079
776.50	0.26445
776.75	0.26029
777.00	0.25613
777.25	0.25177
777.50	0.24670
777.75	0.24137
778.00	0.23805
778.25	0.23292
778.50	0.22621
778.75	0.22378
779.00	0.21915
779.25	0.21537
779.50	0.21258
779.75	0.20615
780.00	0.20336
780.25	0.19824
780.50	0.19427
780.75	0.18934
781.00	0.18864
781.25	0.18334
781.50	0.18098
781.75	0.17726
782.00	0.17234
782.25	0.16994
782.50	0.16592
782.75	0.16274
783.00	0.15798
783.25	0.15731
783.50	0.15163
783.75	0.15018
784.00	0.14854
784.25	0.14235
784.50	0.14023
784.75	0.13718
785.00	0.13394
785.25	0.13073
785.50	0.12967
785.75	0.12691
786.00	0.12585
786.25	0.12191
786.50	0.11983
786.75	0.11679
787.00	0.11415
787.25	0.11302
787.50	0.10985
787.75	0.10828
788.00	0.10656
788.25	0.10088
788.50	0.10198
788.75	0.10015
789.00	0.096197
789.25	0.097129
789.50	0.095455
789.75	0.093164
790.00	0.091189
790.25	0.087946
790.50	0.084324
790.75	0.083869
791.00	0.083435
791.25	0.081368
791.50	0.079876
791.75	0.080338
792.00	0.077200
792.25	0.073796
792.50	0.073691
792.75	0.073383
793.00	0.071253
793.25	0.069558
793.50	0.067947
793.75	0.067071
794.00	0.066105
794.25	0.063226
794.50	0.062924
794.75	0.059681
795.00	0.058392
795.25	0.057734
795.50	0.057804
795.75	0.054442
796.00	0.054778
796.25	0.054168
796.50	0.052207
796.75	0.050953
797.00	0.050036
797.25	0.048403
797.50	0.047269
797.75	0.049041
798.00	0.045665
798.25	0.044292
798.50	0.045391
798.75	0.043759
799.00	0.042148
799.25	0.042393
799.50	0.040768
799.75	0.040124
800.00	0.037763
800.25	0.037469
800.50	0.037028
800.75	0.037672
801.00	0.035865
801.25	0.035192
801.50	0.033973
801.75	0.036194
802.00	0.032502
802.25	0.032306
802.50	0.032033
802.75	0.031003
803.00	0.030478
803.25	0.030884
803.50	0.030380
803.75	0.027711
804.00	0.027984
804.25	0.029834
804.50	0.027333
804.75	0.027452
805.00	0.024545
805.25	0.026380
805.50	0.026688
805.75	0.023795
806.00	0.024195
806.25	0.023193
806.50	0.024734
806.75	0.021743
807.00	0.019754
807.25	0.022093
807.50	0.021757
807.75	0.022240
808.00	0.020090
808.25	0.020132
808.50	0.020335
808.75	0.019831
809.00	0.019600
809.25	0.017701
809.50	0.020482
809.75	0.019158
810.00	0.019459
810.25	0.015523
810.50	0.016707
810.75	0.015621
811.00	0.015285
811.25	0.015747
811.50	0.015200
811.75	0.016615
812.00	0.015257
812.25	0.016174
812.50	0.013680
812.75	0.012167
813.00	0.013603
813.25	0.012742
813.50	0.014122
813.75	0.012497
814.00	0.012917
814.25	0.014115
814.50	0.011754
814.75	0.013218
815.00	0.010227
815.25	0.010661
815.50	0.011285
815.75	0.012574
816.00	0.010276
816.25	0.011082
816.50	0.010052
816.75	0.010493
817.00	0.011159
817.25	0.010304
817.50	0.0096807
817.75	0.0088331
818.00	0.0094425
818.25	0.010066
818.50	0.0088401
818.75	0.0078244
819.00	0.0084058
819.25	0.0088891
819.50	0.0067877
819.75	0.0082517
820.00	0.0084758
820.25	0.0060242
820.50	0.0074672
820.75	0.0068507
821.00	0.0072290
821.25	0.0074251
821.50	0.0077544
821.75	0.0071379
822.00	0.0073551
822.25	0.0067387
822.50	0.0047213
822.75	0.0056459
823.00	0.0065425
823.25	0.0057440
823.50	0.0054287
823.75	0.0051205
824.00	0.0067176
824.25	0.0066686
824.50	0.0066406
824.75	0.0054217
825.00	0.0040068
825.25	0.0047913
825.50	0.0053027
825.75	0.0067316
826.00	0.0026338
826.25	0.0042309
826.50	0.0051205
826.75	0.0056109
827.00	0.0068928
827.25	0.0025077
827.50	0.0066756
827.75	0.0054077
828.00	0.0059541
828.25	0.0065986
828.50	0.0056748
828.75	0.0053937
829.00	0.0034954
829.25	0.0036285
829.50	0.0037336
829.75	0.0036915
830.00	0.0030891
830.25	0.0048894
830.50	0.0044691
830.75	0.0034744
831.00	0.0047213
831.25	0.0019964
831.50	0.0031101
831.75	0.0036915
832.00	0.0058280
832.25	0.0018213
832.50	0.0031452
832.75	0.0019543
833.00	0.0042870
833.25	0.0026899
833.50	0.0056599
833.75	0.0042449
834.00	0.0019964
834.25	0.0043290
834.50	0.0034184
834.75	0.0037546
835.00	0.0026128
835.25	0.0025848
835.50	0.0032643
835.75	0.00095266
836.00	0.0046022
836.25	0.0036775
836.50	0.0039437
836.75	0.00073621
837.00	0.0013519
837.25	0.00078454
837.50	0.0024727
837.75	0.0011698
838.00	0.0047913
838.25	0.0022065
838.50	0.0017092
838.75	0.0039087
839.00	0.0026408
839.25	0.0037616
839.50	0.0026548
839.75	0.0038316
840.00	0.0025498
840.25	0.0017631
840.50	0.0025224
840.75	0.0027949
841.00	0.0010367
841.25	0.0034884
841.50	0.0019123
841.75	0.0017442
842.00	0.00051135
842.25	0.0013729
842.50	0.0027879
842.75	0.0032292
843.00	0.00093164
843.25	0.0036775
843.50	0.0034324
843.75	0.0019053
844.00	0.0037546
844.25	0.0018759
844.50	0.0015341
844.75	0.0037196
845.00	0.0027739
845.25	0.00084758
845.50	0.0020244
845.75	0.0014570
846.00	0.0029981
846.25	0.0023466
846.50	0.0034114
846.75	0.0022135
847.00	0.0013940
847.25	0.0033133
847.50	0.0014486
847.75	0.0041329
848.00	0.0011348
848.25	0.00077670
848.50	0.0016672
848.75	0.0028300
849.00	0.0026478
849.25	0.0020454
849.50	0.0029280
849.75	0.0013309
850.00	0.00076493
