Wavelength (nm)	KL13 abs N
200.00	0.22551
201.00	0.21416
202.00	0.20689
203.00	0.20319
204.00	0.20360
205.00	0.20832
206.00	0.21468
207.00	0.22331
208.00	0.23410
209.00	0.24698
210.00	0.26149
211.00	0.27686
212.00	0.29138
213.00	0.30394
214.00	0.31430
215.00	0.32157
216.00	0.32646
217.00	0.32714
218.00	0.32366
219.00	0.31591
220.00	0.30355
221.00	0.28851
222.00	0.27139
223.00	0.25481
224.00	0.24000
225.00	0.22760
226.00	0.21777
227.00	0.21057
228.00	0.20520
229.00	0.20128
230.00	0.19829
231.00	0.19535
232.00	0.19190
233.00	0.18711
234.00	0.18085
235.00	0.17349
236.00	0.16571
237.00	0.15759
238.00	0.14964
239.00	0.14214
240.00	0.13483
241.00	0.12803
242.00	0.12184
243.00	0.11611
244.00	0.11103
245.00	0.10657
246.00	0.10264
247.00	0.099324
248.00	0.096584
249.00	0.094366
250.00	0.092661
251.00	0.091390
252.00	0.090588
253.00	0.090236
254.00	0.089987
255.00	0.089862
256.00	0.089667
257.00	0.089583
258.00	0.089812
259.00	0.090403
260.00	0.091371
261.00	0.092754
262.00	0.093747
263.00	0.094262
264.00	0.094047
265.00	0.092943
266.00	0.091138
267.00	0.088895
268.00	0.086345
269.00	0.083514
270.00	0.080535
271.00	0.077463
272.00	0.074426
273.00	0.071697
274.00	0.069223
275.00	0.066747
276.00	0.064848
277.00	0.063138
278.00	0.061699
279.00	0.060513
280.00	0.059455
281.00	0.058555
282.00	0.057816
283.00	0.057010
284.00	0.055976
285.00	0.054946
286.00	0.054137
287.00	0.053270
288.00	0.052129
289.00	0.051296
290.00	0.050122
291.00	0.049163
292.00	0.048476
293.00	0.047346
294.00	0.046345
295.00	0.045214
296.00	0.044298
297.00	0.043436
298.00	0.042579
299.00	0.042023
300.00	0.041526
301.00	0.041127
302.00	0.041052
303.00	0.041097
304.00	0.041256
305.00	0.041284
306.00	0.041196
307.00	0.041356
308.00	0.041371
309.00	0.041330
310.00	0.041424
311.00	0.041388
312.00	0.041333
313.00	0.041514
314.00	0.041527
315.00	0.041660
316.00	0.041777
317.00	0.042363
318.00	0.042945
319.00	0.043430
320.00	0.043976
321.00	0.044319
322.00	0.044797
323.00	0.044755
324.00	0.044231
325.00	0.043429
326.00	0.042136
327.00	0.040823
328.00	0.038983
329.00	0.037342
330.00	0.035323
331.00	0.033668
332.00	0.032190
333.00	0.030792
334.00	0.029492
335.00	0.028591
336.00	0.027941
337.00	0.027517
338.00	0.027065
339.00	0.026839
340.00	0.026632
341.00	0.026653
342.00	0.026612
343.00	0.026662
344.00	0.026799
345.00	0.027010
346.00	0.027420
347.00	0.027518
348.00	0.027767
349.00	0.028251
350.00	0.028792
351.00	0.029275
352.00	0.029661
353.00	0.030409
354.00	0.031218
355.00	0.031948
356.00	0.032594
357.00	0.033341
358.00	0.033965
359.00	0.034714
360.00	0.035594
361.00	0.036495
362.00	0.037448
363.00	0.038159
364.00	0.039004
365.00	0.039582
366.00	0.040362
367.00	0.041344
368.00	0.041829
369.00	0.042858
370.00	0.043456
371.00	0.044283
372.00	0.044932
373.00	0.045651
374.00	0.046492
375.00	0.047077
376.00	0.047720
377.00	0.048673
378.00	0.049316
379.00	0.049774
380.00	0.050039
381.00	0.050649
382.00	0.051373
383.00	0.051307
384.00	0.051868
385.00	0.052475
386.00	0.052580
387.00	0.052815
388.00	0.053315
389.00	0.053374
390.00	0.053773
391.00	0.054277
392.00	0.054760
393.00	0.055362
394.00	0.055571
395.00	0.055760
396.00	0.055978
397.00	0.055851
398.00	0.055141
399.00	0.054395
400.00	0.053283
401.00	0.051660
402.00	0.050101
403.00	0.047868
404.00	0.045666
405.00	0.043571
406.00	0.042073
407.00	0.039733
408.00	0.037865
409.00	0.036333
410.00	0.034730
411.00	0.033673
412.00	0.033091
413.00	0.031823
414.00	0.030693
415.00	0.029813
416.00	0.029575
417.00	0.028934
418.00	0.028015
419.00	0.027850
420.00	0.027720
421.00	0.026930
422.00	0.026374
423.00	0.026033
424.00	0.025837
425.00	0.025734
426.00	0.025250
427.00	0.025301
428.00	0.024835
429.00	0.024678
430.00	0.024722
431.00	0.024252
432.00	0.024110
433.00	0.024055
434.00	0.024041
435.00	0.023541
436.00	0.023287
437.00	0.023132
438.00	0.022808
439.00	0.022789
440.00	0.022367
441.00	0.022141
442.00	0.021813
443.00	0.021487
444.00	0.021427
445.00	0.021429
446.00	0.021183
447.00	0.021167
448.00	0.021429
449.00	0.021402
450.00	0.021224
451.00	0.021593
452.00	0.021692
453.00	0.021647
454.00	0.022033
455.00	0.021816
456.00	0.021741
457.00	0.021651
458.00	0.021611
459.00	0.021557
460.00	0.021306
461.00	0.020764
462.00	0.020847
463.00	0.019924
464.00	0.019777
465.00	0.018918
466.00	0.018628
467.00	0.017835
468.00	0.016851
469.00	0.016220
470.00	0.015194
471.00	0.014916
472.00	0.014203
473.00	0.013452
474.00	0.013163
475.00	0.012504
476.00	0.012087
477.00	0.011579
478.00	0.011337
479.00	0.010601
480.00	0.010132
481.00	0.010056
482.00	0.0097113
483.00	0.0095405
484.00	0.0093020
485.00	0.0092589
486.00	0.0087047
487.00	0.0081439
488.00	0.0076215
489.00	0.0080124
490.00	0.0083171
491.00	0.0081747
492.00	0.0082263
493.00	0.0076513
494.00	0.0078108
495.00	0.0079154
496.00	0.0074847
497.00	0.0073214
498.00	0.0073896
499.00	0.0074956
500.00	0.0069263
501.00	0.0073470
502.00	0.0072301
503.00	0.0065941
504.00	0.0068468
505.00	0.0068458
506.00	0.0061842
507.00	0.0060678
508.00	0.0063901
509.00	0.0059722
510.00	0.0059225
511.00	0.0060342
512.00	0.0059609
513.00	0.0058643
514.00	0.0058070
515.00	0.0058265
516.00	0.0057824
517.00	0.0057238
518.00	0.0054710
519.00	0.0054327
520.00	0.0054502
521.00	0.0058421
522.00	0.0061099
523.00	0.0055302
524.00	0.0054654
525.00	0.0052037
526.00	0.0055278
527.00	0.0050120
528.00	0.0058288
529.00	0.0063376
530.00	0.0057881
531.00	0.0063290
532.00	0.0052524
533.00	0.0052917
534.00	0.0058179
535.00	0.0058137
536.00	0.0059609
537.00	0.0056816
538.00	0.0063243
539.00	0.0063551
540.00	0.0060617
541.00	0.0064133
542.00	0.0063087
543.00	0.0066002
544.00	0.0066201
545.00	0.0066854
546.00	0.0067436
547.00	0.0069703
548.00	0.0069665
549.00	0.0071534
550.00	0.0069594
551.00	0.0073517
552.00	0.0075245
553.00	0.0078624
554.00	0.0081103
555.00	0.0079177
556.00	0.0077743
557.00	0.0081624
558.00	0.0086574
559.00	0.0087416
560.00	0.0086645
561.00	0.0086096
562.00	0.0090161
563.00	0.0094335
564.00	0.0096384
565.00	0.0097520
566.00	0.010099
567.00	0.010346
568.00	0.010515
569.00	0.010352
570.00	0.010548
571.00	0.010915
572.00	0.010965
573.00	0.011171
574.00	0.011510
575.00	0.011661
576.00	0.012055
577.00	0.012501
578.00	0.012663
579.00	0.012848
580.00	0.013389
581.00	0.013743
582.00	0.013953
583.00	0.014155
584.00	0.014947
585.00	0.015308
586.00	0.015559
587.00	0.015890
588.00	0.016475
589.00	0.016676
590.00	0.017467
591.00	0.018093
592.00	0.018552
593.00	0.019014
594.00	0.019289
595.00	0.019731
596.00	0.020283
597.00	0.020988
598.00	0.021300
599.00	0.021842
600.00	0.022242
601.00	0.022856
602.00	0.023418
603.00	0.024168
604.00	0.024561
605.00	0.025174
606.00	0.025741
607.00	0.026362
608.00	0.027114
609.00	0.027803
610.00	0.028549
611.00	0.029191
612.00	0.029918
613.00	0.030641
614.00	0.031289
615.00	0.032165
616.00	0.033011
617.00	0.033960
618.00	0.035019
619.00	0.035834
620.00	0.037062
621.00	0.037495
622.00	0.039081
623.00	0.039942
624.00	0.040994
625.00	0.042005
626.00	0.043214
627.00	0.044483
628.00	0.045512
629.00	0.047176
630.00	0.048252
631.00	0.049716
632.00	0.050868
633.00	0.052603
634.00	0.053979
635.00	0.055113
636.00	0.056657
637.00	0.058209
638.00	0.059448
639.00	0.061204
640.00	0.062729
641.00	0.064127
642.00	0.065902
643.00	0.067598
644.00	0.069345
645.00	0.070561
646.00	0.072463
647.00	0.073696
648.00	0.075534
649.00	0.077127
650.00	0.078676
651.00	0.080281
652.00	0.082131
653.00	0.083718
654.00	0.084954
655.00	0.087076
656.00	0.087705
657.00	0.087283
658.00	0.090562
659.00	0.093427
660.00	0.095094
661.00	0.097351
662.00	0.099250
663.00	0.10101
664.00	0.10324
665.00	0.10513
666.00	0.10682
667.00	0.10915
668.00	0.11156
669.00	0.11344
670.00	0.11549
671.00	0.11803
672.00	0.12058
673.00	0.12310
674.00	0.12594
675.00	0.12842
676.00	0.13150
677.00	0.13496
678.00	0.13841
679.00	0.14161
680.00	0.14496
681.00	0.14857
682.00	0.15290
683.00	0.15669
684.00	0.16068
685.00	0.16464
686.00	0.16905
687.00	0.17396
688.00	0.17861
689.00	0.18380
690.00	0.18884
691.00	0.19404
692.00	0.19880
693.00	0.20464
694.00	0.20975
695.00	0.21572
696.00	0.22150
697.00	0.22710
698.00	0.23293
699.00	0.23896
700.00	0.24460
701.00	0.25057
702.00	0.25689
703.00	0.26230
704.00	0.26811
705.00	0.27390
706.00	0.27936
707.00	0.28470
708.00	0.28976
709.00	0.29551
710.00	0.30069
711.00	0.30539
712.00	0.30971
713.00	0.31397
714.00	0.31787
715.00	0.32174
716.00	0.32597
717.00	0.32889
718.00	0.33224
719.00	0.33540
720.00	0.33784
721.00	0.34039
722.00	0.34267
723.00	0.34534
724.00	0.34711
725.00	0.34866
726.00	0.35027
727.00	0.35154
728.00	0.35356
729.00	0.35575
730.00	0.35668
731.00	0.35857
732.00	0.36025
733.00	0.36305
734.00	0.36473
735.00	0.36680
736.00	0.36942
737.00	0.37209
738.00	0.37499
739.00	0.37870
740.00	0.38193
741.00	0.38655
742.00	0.39227
743.00	0.39753
744.00	0.40313
745.00	0.40967
746.00	0.41690
747.00	0.42444
748.00	0.43232
749.00	0.44119
750.00	0.45053
751.00	0.46126
752.00	0.47238
753.00	0.48417
754.00	0.49623
755.00	0.50961
756.00	0.52469
757.00	0.53877
758.00	0.55411
759.00	0.56904
760.00	0.58680
761.00	0.60307
762.00	0.62191
763.00	0.63918
764.00	0.65757
765.00	0.67757
766.00	0.69631
767.00	0.71542
768.00	0.73735
769.00	0.75781
770.00	0.77721
771.00	0.79508
772.00	0.81580
773.00	0.83632
774.00	0.85320
775.00	0.87191
776.00	0.89067
777.00	0.90777
778.00	0.92416
779.00	0.93783
780.00	0.95020
781.00	0.96370
782.00	0.97150
783.00	0.97779
784.00	0.99129
785.00	0.99319
786.00	0.99658
787.00	0.99904
788.00	0.99979
789.00	1.00000
790.00	0.99321
791.00	0.98746
792.00	0.97950
793.00	0.96714
794.00	0.95674
795.00	0.94609
796.00	0.92904
797.00	0.91347
798.00	0.89431
799.00	0.87444
800.00	0.85202
801.00	0.82932
802.00	0.80633
803.00	0.78295
804.00	0.75749
805.00	0.72970
806.00	0.70427
807.00	0.68011
808.00	0.65401
809.00	0.62709
810.00	0.60279
811.00	0.57422
812.00	0.54905
813.00	0.52251
814.00	0.49792
815.00	0.47519
816.00	0.45018
817.00	0.42494
818.00	0.40372
819.00	0.38234
820.00	0.36103
821.00	0.34002
822.00	0.32118
823.00	0.30300
824.00	0.28494
825.00	0.26682
826.00	0.25064
827.00	0.23574
828.00	0.22094
829.00	0.20707
830.00	0.19379
831.00	0.18208
832.00	0.16946
833.00	0.15780
834.00	0.14701
835.00	0.13744
836.00	0.12893
837.00	0.12011
838.00	0.11180
839.00	0.10394
840.00	0.096540
841.00	0.089756
842.00	0.084018
843.00	0.076810
844.00	0.071620
845.00	0.066687
846.00	0.062038
847.00	0.057285
848.00	0.053135
849.00	0.049212
850.00	0.045438
851.00	0.041662
852.00	0.038098
853.00	0.035673
854.00	0.033044
855.00	0.031095
856.00	0.028739
857.00	0.026439
858.00	0.024531
859.00	0.022223
860.00	0.020856
861.00	0.018754
862.00	0.017542
863.00	0.016163
864.00	0.015491
865.00	0.014152
866.00	0.013286
867.00	0.012179
868.00	0.011591
869.00	0.010690
870.00	0.0098187
871.00	0.0092343
872.00	0.0084430
873.00	0.0074913
874.00	0.0073072
875.00	0.0066579
876.00	0.0064483
877.00	0.0064781
878.00	0.0054015
879.00	0.0054843
880.00	0.0047422
881.00	0.0052571
882.00	0.0048743
883.00	0.0045146
884.00	0.0038492
885.00	0.0043788
886.00	0.0039046
887.00	0.0038298
888.00	0.0034110
889.00	0.0034318
890.00	0.0027168
891.00	0.0033665
892.00	0.0030660
893.00	0.0027508
894.00	0.0025838
895.00	0.0023183
896.00	0.0027182
897.00	0.0025890
898.00	0.0026074
899.00	0.0029832
900.00	0.0024366
901.00	0.0019889
902.00	0.0019411
903.00	0.0018507
904.00	0.0023325
905.00	0.0021347
906.00	0.0026917
907.00	0.0023083
908.00	0.0025947
909.00	0.0022090
910.00	0.0023950
911.00	0.0016737
912.00	0.0017859
913.00	0.0022009
914.00	0.0017868
915.00	0.0018313
916.00	0.0020765
917.00	0.0017532
918.00	0.0014636
919.00	0.0026202
920.00	0.0021261
921.00	0.0020556
922.00	0.0018214
923.00	0.0014414
924.00	0.0017438
925.00	0.0017452
926.00	0.0017551
927.00	0.0017741
928.00	0.0013604
929.00	0.0021025
930.00	0.0019686
931.00	0.0022265
932.00	0.0017258
933.00	0.0027669
934.00	0.0017031
935.00	0.0016874
936.00	0.0021597
937.00	0.0019269
938.00	0.0019927
939.00	0.0015994
940.00	0.0017557
941.00	0.0025109
942.00	0.0018465
943.00	0.0026581
944.00	0.0025024
945.00	0.0021134
946.00	0.0022109
947.00	0.0020618
948.00	0.0024475
949.00	0.0022889
950.00	0.0025185
