Wavelength (nm)	K14 abs N
220.00	0.20773
220.25	0.21007
220.50	0.21872
220.75	0.20307
221.00	0.20822
221.25	0.20847
221.50	0.20268
221.75	0.20409
222.00	0.20698
222.25	0.21325
222.50	0.20019
222.75	0.19824
223.00	0.20673
223.25	0.20827
223.50	0.19971
223.75	0.20422
224.00	0.19764
224.25	0.19380
224.50	0.19603
224.75	0.19209
225.00	0.19689
225.25	0.18757
225.50	0.18624
225.75	0.17997
226.00	0.18534
226.25	0.17606
226.50	0.17770
226.75	0.18023
227.00	0.17252
227.25	0.16721
227.50	0.16353
227.75	0.15881
228.00	0.15785
228.25	0.15647
228.50	0.14575
228.75	0.14099
229.00	0.14474
229.25	0.14037
229.50	0.13304
229.75	0.12783
230.00	0.13111
230.25	0.12294
230.50	0.12812
230.75	0.12423
231.00	0.11931
231.25	0.10750
231.50	0.11096
231.75	0.10732
232.00	0.10290
232.25	0.10405
232.50	0.10308
232.75	0.099786
233.00	0.094274
233.25	0.10267
233.50	0.092978
233.75	0.091401
234.00	0.095638
234.25	0.084830
234.50	0.084816
234.75	0.086561
235.00	0.083259
235.25	0.079465
235.50	0.077687
235.75	0.074463
236.00	0.079463
236.25	0.073373
236.50	0.074121
236.75	0.074284
237.00	0.077824
237.25	0.078249
237.50	0.074589
237.75	0.070570
238.00	0.071802
238.25	0.068520
238.50	0.068265
238.75	0.067169
239.00	0.065476
239.25	0.069416
239.50	0.067941
239.75	0.070994
240.00	0.073270
240.25	0.067811
240.50	0.066254
240.75	0.060731
241.00	0.060196
241.25	0.062216
241.50	0.062548
241.75	0.061678
242.00	0.060789
242.25	0.058390
242.50	0.055618
242.75	0.053320
243.00	0.054508
243.25	0.054763
243.50	0.054662
243.75	0.054162
244.00	0.055772
244.25	0.051569
244.50	0.052295
244.75	0.051228
245.00	0.050295
245.25	0.043832
245.50	0.043285
245.75	0.041054
246.00	0.045773
246.25	0.040394
246.50	0.042580
246.75	0.039113
247.00	0.042686
247.25	0.036616
247.50	0.034294
247.75	0.040349
248.00	0.033663
248.25	0.034727
248.50	0.036302
248.75	0.032987
249.00	0.030866
249.25	0.037912
249.50	0.033120
249.75	0.029725
250.00	0.035366
250.25	0.027307
250.50	0.031138
250.75	0.032558
251.00	0.028088
251.25	0.026774
251.50	0.034575
251.75	0.033723
252.00	0.028758
252.25	0.031526
252.50	0.028651
252.75	0.034451
253.00	0.032330
253.25	0.034592
253.50	0.032769
253.75	0.030217
254.00	0.032742
254.25	0.029186
254.50	0.033583
254.75	0.033611
255.00	0.036338
255.25	0.033133
255.50	0.031554
255.75	0.036655
256.00	0.031058
256.25	0.032538
256.50	0.036641
256.75	0.033226
257.00	0.034959
257.25	0.033233
257.50	0.033967
257.75	0.035317
258.00	0.037888
258.25	0.035616
258.50	0.042258
258.75	0.036420
259.00	0.037629
259.25	0.037551
259.50	0.044526
259.75	0.037344
260.00	0.037892
260.25	0.038458
260.50	0.041227
260.75	0.042902
261.00	0.040450
261.25	0.047062
261.50	0.043952
261.75	0.040363
262.00	0.046266
262.25	0.039782
262.50	0.040994
262.75	0.039325
263.00	0.047063
263.25	0.043921
263.50	0.046766
263.75	0.048737
264.00	0.047644
264.25	0.045399
264.50	0.049644
264.75	0.046952
265.00	0.042445
265.25	0.046552
265.50	0.047104
265.75	0.045971
266.00	0.042751
266.25	0.049372
266.50	0.047621
266.75	0.049777
267.00	0.053421
267.25	0.050911
267.50	0.053904
267.75	0.048733
268.00	0.054882
268.25	0.045499
268.50	0.047924
268.75	0.049018
269.00	0.045306
269.25	0.048293
269.50	0.047953
269.75	0.049553
270.00	0.048471
270.25	0.047415
270.50	0.050816
270.75	0.045304
271.00	0.047621
271.25	0.049301
271.50	0.050881
271.75	0.051148
272.00	0.049900
272.25	0.048345
272.50	0.045548
272.75	0.050623
273.00	0.055182
273.25	0.046677
273.50	0.050648
273.75	0.053921
274.00	0.048548
274.25	0.049054
274.50	0.052663
274.75	0.054234
275.00	0.046509
275.25	0.053794
275.50	0.055720
275.75	0.053516
276.00	0.051323
276.25	0.047957
276.50	0.052875
276.75	0.052962
277.00	0.051967
277.25	0.053513
277.50	0.052883
277.75	0.052492
278.00	0.053344
278.25	0.061564
278.50	0.055960
278.75	0.052893
279.00	0.060157
279.25	0.061204
279.50	0.060082
279.75	0.060024
280.00	0.063341
280.25	0.058011
280.50	0.061461
280.75	0.064449
281.00	0.064650
281.25	0.060529
281.50	0.063009
281.75	0.057419
282.00	0.063292
282.25	0.063079
282.50	0.064307
282.75	0.059187
283.00	0.063980
283.25	0.064814
283.50	0.070418
283.75	0.069988
284.00	0.065861
284.25	0.064513
284.50	0.070286
284.75	0.075293
285.00	0.075436
285.25	0.070443
285.50	0.072606
285.75	0.075134
286.00	0.076000
286.25	0.076965
286.50	0.075998
286.75	0.074569
287.00	0.077950
287.25	0.075739
287.50	0.081201
287.75	0.076822
288.00	0.085206
288.25	0.080959
288.50	0.085308
288.75	0.082482
289.00	0.085726
289.25	0.087334
289.50	0.090350
289.75	0.081415
290.00	0.085892
290.25	0.081584
290.50	0.089647
290.75	0.089252
291.00	0.088401
291.25	0.092663
291.50	0.091972
291.75	0.095355
292.00	0.090017
292.25	0.096374
292.50	0.093998
292.75	0.093199
293.00	0.091327
293.25	0.095744
293.50	0.095495
293.75	0.092087
294.00	0.091338
294.25	0.094166
294.50	0.096909
294.75	0.097100
295.00	0.10016
295.25	0.094153
295.50	0.095018
295.75	0.092091
296.00	0.099565
296.25	0.097842
296.50	0.096939
296.75	0.097720
297.00	0.094357
297.25	0.095599
297.50	0.099090
297.75	0.095204
298.00	0.099023
298.25	0.10257
298.50	0.099197
298.75	0.093838
299.00	0.092626
299.25	0.098010
299.50	0.10038
299.75	0.095986
300.00	0.095117
300.25	0.093039
300.50	0.087935
300.75	0.089349
301.00	0.092992
301.25	0.085752
301.50	0.088585
301.75	0.090143
302.00	0.085260
302.25	0.079156
302.50	0.079022
302.75	0.074826
303.00	0.075505
303.25	0.072395
303.50	0.068645
303.75	0.071688
304.00	0.065678
304.25	0.074042
304.50	0.066597
304.75	0.063003
305.00	0.062430
305.25	0.060339
305.50	0.061945
305.75	0.054958
306.00	0.056971
306.25	0.054461
306.50	0.050885
306.75	0.054223
307.00	0.048493
307.25	0.044915
307.50	0.048840
307.75	0.050212
308.00	0.050909
308.25	0.050091
308.50	0.045339
308.75	0.046223
309.00	0.048854
309.25	0.042144
309.50	0.046057
309.75	0.043624
310.00	0.046485
310.25	0.045575
310.50	0.043442
310.75	0.043625
311.00	0.052540
311.25	0.043407
311.50	0.043221
311.75	0.041983
312.00	0.043714
312.25	0.039670
312.50	0.047666
312.75	0.040040
313.00	0.047024
313.25	0.047196
313.50	0.042000
313.75	0.044697
314.00	0.048419
314.25	0.045212
314.50	0.035806
314.75	0.041761
315.00	0.045124
315.25	0.037897
315.50	0.031795
315.75	0.040132
316.00	0.040507
316.25	0.042397
316.50	0.039453
316.75	0.039998
317.00	0.041098
317.25	0.037643
317.50	0.038288
317.75	0.042109
318.00	0.038356
318.25	0.035556
318.50	0.040709
318.75	0.035321
319.00	0.039285
319.25	0.042568
319.50	0.038076
319.75	0.033616
320.00	0.040938
320.25	0.041935
320.50	0.040242
320.75	0.038833
321.00	0.041746
321.25	0.036508
321.50	0.038130
321.75	0.037819
322.00	0.039138
322.25	0.032424
322.50	0.033994
322.75	0.038543
323.00	0.028857
323.25	0.033761
323.50	0.030312
323.75	0.033919
324.00	0.030815
324.25	0.029805
324.50	0.031667
324.75	0.029718
325.00	0.029096
325.25	0.028701
325.50	0.027092
325.75	0.032023
326.00	0.029388
326.25	0.031241
326.50	0.019685
326.75	0.023928
327.00	0.022428
327.25	0.022871
327.50	0.025891
327.75	0.023308
328.00	0.025603
328.25	0.027066
328.50	0.025771
328.75	0.029555
329.00	0.025311
329.25	0.020054
329.50	0.021468
329.75	0.015283
330.00	0.020116
330.25	0.010455
330.50	0.013519
330.75	0.010279
331.00	0.0049568
331.25	0.014883
331.50	0.016545
331.75	0.014095
332.00	0.012262
332.25	0.0067354
332.50	0.010971
332.75	0.0082876
333.00	0.011795
333.25	0.0082139
333.50	0.017186
333.75	0.016874
334.00	0.0087618
334.25	0.011613
334.50	0.0047889
334.75	0.0084057
335.00	0.0085656
335.25	0.010411
335.50	0.0063900
335.75	0.012141
336.00	0.0087805
336.25	0.0056414
336.50	0.0069521
336.75	0.010146
337.00	0.0093523
337.25	0.0037784
337.50	0.011515
337.75	0.010063
338.00	0.0072798
338.25	0.0050358
338.50	0.0050393
338.75	0.0066120
339.00	0.0042668
339.25	0.0040697
339.50	0.0055997
339.75	0.0038885
340.00	0.0053120
340.25	0.0051654
340.50	0.011819
340.75	0.0037331
341.00	0.0054949
341.25	0.0078587
341.50	0.0065365
341.75	0.0061724
342.00	0.0046353
342.25	0.0042153
342.50	0.0059566
342.75	0.0044568
343.00	0.0095788
343.25	0.0040333
343.50	0.0091516
343.75	0.0057453
344.00	0.0042144
344.25	0.0035955
344.50	0.0041553
344.75	0.0057275
345.00	0.0058483
345.25	0.0056355
345.50	0.0034552
345.75	0.0046105
346.00	0.0050740
346.25	0.0064388
346.50	0.010004
346.75	0.010889
347.00	0.0062967
347.25	0.0040635
347.50	0.0089385
347.75	0.0049864
348.00	0.0081598
348.25	0.0054976
348.50	0.0046824
348.75	0.0063003
349.00	0.0081189
349.25	0.0040215
349.50	0.0052723
349.75	0.0049728
350.00	0.0049967
350.25	0.0067985
350.50	0.0073526
350.75	0.0080186
351.00	0.0093097
351.25	0.010303
351.50	0.0075160
351.75	0.0092342
352.00	0.0085700
352.25	0.0069592
352.50	0.0065196
352.75	0.0057213
353.00	0.0051566
353.25	0.0057045
353.50	0.0045909
353.75	0.0085780
354.00	0.0014234
354.25	0.0020113
354.50	0.0010221
354.75	0.0045314
355.00	0.0041789
355.25	0.0037535
355.50	0.0039160
355.75	0.0017715
356.00	0.0057098
356.25	0.0046762
356.50	0.0059957
356.75	0.0062381
357.00	0.0077388
357.25	0.0063358
357.50	0.0056263
357.75	0.0053137
358.00	0.0043796
358.25	0.0040723
358.50	0.0065205
358.75	0.00035076
359.00	0.0067381
359.25	0.0094491
359.50	0.0059620
359.75	0.0048511
360.00	0.0058989
360.25	0.0042686
360.50	0.0052596
360.75	0.0035049
361.00	0.0052924
361.25	0.0039596
361.50	0.0078720
361.75	0.0060126
362.00	0.0046531
362.25	0.0020371
362.50	0.0076953
362.75	0.0066084
363.00	0.0088080
363.25	0.0028398
363.50	0.0074502
363.75	0.0070284
364.00	0.0077610
364.25	0.0051068
364.50	0.0046211
364.75	0.0046406
365.00	0.0045545
365.25	0.0058963
365.50	0.0052720
365.75	0.0059522
366.00	0.0027510
366.25	0.0032039
366.50	0.0038468
366.75	0.0055153
367.00	0.0069157
367.25	0.0051743
367.50	0.00010745
367.75	0.0030520
368.00	0.0023772
368.25	0.0028798
368.50	0.0066972
368.75	0.0031817
369.00	0.0038965
369.25	0.0043973
369.50	0.0083382
369.75	0.0042659
370.00	0.0012290
370.25	0.0039302
370.50	0.0035049
370.75	0.0018133
371.00	0.0046131
371.25	0.0026080
371.50	0.0035049
371.75	0.0042695
372.00	0.0039853
372.25	0.0034587
372.50	0.0032438
372.75	0.0038601
373.00	0.0048733
373.25	0.0045482
373.50	0.0036292
373.75	0.0043121
374.00	0.0033353
374.25	0.0024944
374.50	0.0021081
374.75	0.0066315
375.00	0.0036345
375.25	0.0032332
375.50	0.0033548
375.75	0.0055218
376.00	-0.00079298
376.25	0.0025743
376.50	0.0039187
376.75	0.0034152
377.00	0.0029916
377.25	0.0022324
377.50	0.0020486
377.75	-0.0010931
378.00	0.0034454
378.25	0.0064388
378.50	0.0053368
378.75	0.0036044
379.00	0.0039897
379.25	0.0049745
379.50	0.0031248
379.75	0.0025530
380.00	0.0014314
380.25	0.00092173
380.50	0.0019882
380.75	0.0019927
381.00	0.0013675
381.25	0.0029348
381.50	-0.0016108
381.75	0.0011135
382.00	0.00025397
382.25	0.0017476
382.50	0.0019278
382.75	0.0013027
383.00	0.0031932
383.25	0.00045643
383.50	0.00049195
383.75	0.00079564
384.00	0.0026604
384.25	0.00037207
384.50	0.0039596
384.75	0.0020379
385.00	0.0011286
385.25	0.0011935
385.50	0.0020868
385.75	0.00032145
386.00	0.00082317
386.25	-0.00055499
386.50	-0.0018497
386.75	0.0024526
387.00	0.0028558
387.25	0.0017378
387.50	0.0026569
387.75	0.0018142
388.00	0.00091552
388.25	0.0028584
388.50	0.0025468
388.75	0.0022289
389.00	0.0039089
389.25	0.0021516
389.50	0.0035626
389.75	-0.0021916
390.00	0.0021818
390.25	0.0012112
390.50	0.0020060
390.75	0.0028194
391.00	-0.00045909
391.25	0.0025974
391.50	0.00092973
391.75	0.0017334
392.00	0.0028567
392.25	0.0043121
392.50	-0.0012281
392.75	0.00062159
393.00	0.00060295
393.25	0.00014474
393.50	0.0016783
393.75	0.0011979
394.00	0.00056654
394.25	0.00097146
394.50	0.0020211
394.75	0.0021205
395.00	0.00049639
395.25	0.0018772
395.50	0.0016144
395.75	0.0017822
396.00	0.0025530
396.25	0.00052747
396.50	0.0028869
396.75	0.0041221
397.00	0.00031346
397.25	0.0024571
397.50	0.0016827
397.75	0.0044879
398.00	0.0018399
398.25	0.0023887
398.50	-0.0013364
398.75	0.0025112
399.00	0.0032873
399.25	0.0014909
399.50	0.00058874
399.75	0.0031950
400.00	0.0028638
400.25	0.0023292
400.50	0.0048289
400.75	0.0025920
401.00	0.0040670
401.25	0.0032456
401.50	0.0040741
401.75	0.00030014
402.00	0.0056743
402.25	0.0015513
402.50	0.0035964
402.75	0.00094038
403.00	0.0051477
403.25	0.0039906
403.50	0.0047516
403.75	0.0032074
404.00	0.00083294
404.25	0.0049603
404.50	0.0023656
404.75	0.0033939
405.00	0.0038654
405.25	0.0074494
405.50	0.0051210
405.75	0.0035688
406.00	0.0024136
406.25	0.0039667
406.50	0.0033788
406.75	0.0048911
407.00	0.0047587
407.25	0.0060303
407.50	0.0051734
407.75	0.0050687
408.00	0.0034419
408.25	0.0026400
408.50	0.0039826
408.75	0.0049106
409.00	0.0053635
409.25	0.0050562
409.50	0.0044311
409.75	0.0065010
410.00	0.0063589
410.25	0.0052969
410.50	0.0056308
410.75	0.0039409
411.00	0.0030600
411.25	0.0047934
411.50	0.0024464
411.75	0.0064069
412.00	0.0060623
412.25	0.0061458
412.50	0.0044044
412.75	0.0060037
413.00	0.0041656
413.25	0.0051495
413.50	0.0024890
413.75	0.0057471
414.00	0.0063660
414.25	0.0066963
414.50	0.00078410
414.75	0.0032500
415.00	0.0055997
415.25	0.0036985
415.50	0.0048094
415.75	0.0060801
416.00	0.0044000
416.25	0.0042251
416.50	0.0060898
416.75	0.0026009
417.00	0.0056725
417.25	0.0058545
417.50	0.0029286
417.75	0.0043805
418.00	0.0053297
418.25	0.0043041
418.50	0.0040714
418.75	0.0062239
419.00	0.0035706
419.25	0.0044098
419.50	0.0053333
419.75	0.0039809
420.00	0.0070089
420.25	0.0070657
420.50	0.0067541
420.75	0.0060197
421.00	0.0048289
421.25	0.0052072
421.50	0.0063385
421.75	0.0076305
422.00	0.0053741
422.25	0.0059913
422.50	0.0049932
422.75	0.0035413
423.00	0.0061991
423.25	0.0031293
423.50	0.0046140
423.75	0.0045518
424.00	0.0057897
424.25	0.0066058
424.50	0.0055499
424.75	0.0049461
425.00	0.0043254
425.25	0.0053146
425.50	0.0077886
425.75	0.0043094
426.00	0.0031453
426.25	0.0051512
426.50	0.0032882
426.75	0.0045066
427.00	0.0069947
427.25	0.0046087
427.50	0.0076074
427.75	0.0062799
428.00	0.0040537
428.25	0.0072842
428.50	0.0043982
428.75	0.0065960
429.00	0.0052862
429.25	0.0055775
429.50	0.0053404
429.75	0.0069974
430.00	0.0057222
430.25	0.0050722
430.50	0.0072149
430.75	0.0034898
431.00	0.0058252
431.25	0.0058616
431.50	0.0078854
431.75	0.0089536
432.00	0.0047863
432.25	0.0033309
432.50	0.0068881
432.75	0.0055304
433.00	0.0043654
433.25	0.0078010
433.50	0.0067336
433.75	0.0056299
434.00	0.0072220
434.25	0.0052063
434.50	0.0076616
434.75	0.0065800
435.00	0.0045803
435.25	0.0050935
435.50	0.0054114
435.75	0.0061298
436.00	0.0048422
436.25	0.0066679
436.50	0.0031746
436.75	0.0065543
437.00	0.0065569
437.25	0.0049204
437.50	0.0062550
437.75	0.0064992
438.00	0.0057293
438.25	0.0063474
438.50	0.0073233
438.75	0.0046513
439.00	0.0058954
439.25	0.0079600
439.50	0.0082050
439.75	0.0069574
440.00	0.0058661
440.25	0.0076341
440.50	0.0071057
440.75	0.0068437
441.00	0.0075124
441.25	0.0060188
441.50	0.0076101
441.75	0.0061991
442.00	0.0080656
442.25	0.0081233
442.50	0.0094536
442.75	0.0071004
443.00	0.0065916
443.25	0.0070249
443.50	0.0096542
443.75	0.0091277
444.00	0.0075994
444.25	0.0080266
444.50	0.010357
444.75	0.0071679
445.00	0.0091765
445.25	0.0071767
445.50	0.0088710
445.75	0.0084448
446.00	0.0086544
446.25	0.0070134
446.50	0.0085709
446.75	0.0087654
447.00	0.0098434
447.25	0.010898
447.50	0.0096738
447.75	0.0088941
448.00	0.010446
448.25	0.010394
448.50	0.011078
448.75	0.011832
449.00	0.011138
449.25	0.010041
449.50	0.011266
449.75	0.011696
450.00	0.010233
450.25	0.011600
450.50	0.0071723
450.75	0.010627
451.00	0.010146
451.25	0.010350
451.50	0.011178
451.75	0.013123
452.00	0.011895
452.25	0.013686
452.50	0.014649
452.75	0.011876
453.00	0.011718
453.25	0.013616
453.50	0.013171
453.75	0.012720
454.00	0.013035
454.25	0.013466
454.50	0.014893
454.75	0.013912
455.00	0.015411
455.25	0.015073
455.50	0.015423
455.75	0.014447
456.00	0.015344
456.25	0.013341
456.50	0.015717
456.75	0.014563
457.00	0.017539
457.25	0.015511
457.50	0.016373
457.75	0.015513
458.00	0.014371
458.25	0.016552
458.50	0.017111
458.75	0.017517
459.00	0.017806
459.25	0.015574
459.50	0.018121
459.75	0.018479
460.00	0.019379
460.25	0.018754
460.50	0.018668
460.75	0.019090
461.00	0.019335
461.25	0.019470
461.50	0.020105
461.75	0.021621
462.00	0.020918
462.25	0.021346
462.50	0.021705
462.75	0.020082
463.00	0.023213
463.25	0.022256
463.50	0.023206
463.75	0.022191
464.00	0.022968
464.25	0.023909
464.50	0.022812
464.75	0.024921
465.00	0.024698
465.25	0.025547
465.50	0.025856
465.75	0.026139
466.00	0.026477
466.25	0.027211
466.50	0.027249
466.75	0.027379
467.00	0.028013
467.25	0.027646
467.50	0.027981
467.75	0.028600
468.00	0.029665
468.25	0.031421
468.50	0.030605
468.75	0.031589
469.00	0.033063
469.25	0.033370
469.50	0.032858
469.75	0.035275
470.00	0.034135
470.25	0.034663
470.50	0.034431
470.75	0.034120
471.00	0.034690
471.25	0.036655
471.50	0.037309
471.75	0.037945
472.00	0.038291
472.25	0.038965
472.50	0.037908
472.75	0.041023
473.00	0.041003
473.25	0.041811
473.50	0.042196
473.75	0.042422
474.00	0.043232
474.25	0.044627
474.50	0.045620
474.75	0.046496
475.00	0.046587
475.25	0.047709
475.50	0.048592
475.75	0.050155
476.00	0.051239
476.25	0.048524
476.50	0.050959
476.75	0.051036
477.00	0.052626
477.25	0.053388
477.50	0.053847
477.75	0.055021
478.00	0.056115
478.25	0.057136
478.50	0.056474
478.75	0.058894
479.00	0.059142
479.25	0.058961
479.50	0.060653
479.75	0.061089
480.00	0.062800
480.25	0.061723
480.50	0.063815
480.75	0.064742
481.00	0.066975
481.25	0.067341
481.50	0.068591
481.75	0.068479
482.00	0.067369
482.25	0.070558
482.50	0.069186
482.75	0.072482
483.00	0.071207
483.25	0.073064
483.50	0.074227
483.75	0.076771
484.00	0.076278
484.25	0.076635
484.50	0.077056
484.75	0.078776
485.00	0.079486
485.25	0.082026
485.50	0.081399
485.75	0.083975
486.00	0.083535
486.25	0.084166
486.50	0.086316
486.75	0.085096
487.00	0.087380
487.25	0.088132
487.50	0.091322
487.75	0.090712
488.00	0.091058
488.25	0.092626
488.50	0.092031
488.75	0.095863
489.00	0.096249
489.25	0.095620
489.50	0.099735
489.75	0.096542
490.00	0.098275
490.25	0.10085
490.50	0.10167
490.75	0.10302
491.00	0.10217
491.25	0.10399
491.50	0.10538
491.75	0.10716
492.00	0.10912
492.25	0.10742
492.50	0.10870
492.75	0.11045
493.00	0.11131
493.25	0.11157
493.50	0.11510
493.75	0.11294
494.00	0.11422
494.25	0.11606
494.50	0.11870
494.75	0.11845
495.00	0.11905
495.25	0.12188
495.50	0.12325
495.75	0.12356
496.00	0.12393
496.25	0.12718
496.50	0.12787
496.75	0.12904
497.00	0.12998
497.25	0.13162
497.50	0.13444
497.75	0.13538
498.00	0.13588
498.25	0.13860
498.50	0.14091
498.75	0.14328
499.00	0.14447
499.25	0.14598
499.50	0.14860
499.75	0.15024
500.00	0.15105
500.25	0.15305
500.50	0.15622
500.75	0.15614
501.00	0.15977
501.25	0.16128
501.50	0.16446
501.75	0.16549
502.00	0.16838
502.25	0.17081
502.50	0.17262
502.75	0.17584
503.00	0.17588
503.25	0.17827
503.50	0.18214
503.75	0.18539
504.00	0.18789
504.25	0.18994
504.50	0.19317
504.75	0.19390
505.00	0.19896
505.25	0.20284
505.50	0.20321
505.75	0.20714
506.00	0.20991
506.25	0.21135
506.50	0.21425
506.75	0.21917
507.00	0.22279
507.25	0.22584
507.50	0.22818
507.75	0.23061
508.00	0.23457
508.25	0.23811
508.50	0.23987
508.75	0.24333
509.00	0.24647
509.25	0.24916
509.50	0.25098
509.75	0.25614
510.00	0.25882
510.25	0.26375
510.50	0.26577
510.75	0.26938
511.00	0.27205
511.25	0.27562
511.50	0.28199
511.75	0.28370
512.00	0.28618
512.25	0.28808
512.50	0.29365
512.75	0.29842
513.00	0.29966
513.25	0.30638
513.50	0.30465
513.75	0.31071
514.00	0.31451
514.25	0.31782
514.50	0.32175
514.75	0.32448
515.00	0.32691
515.25	0.33274
515.50	0.33638
515.75	0.34007
516.00	0.34484
516.25	0.34659
516.50	0.34865
516.75	0.35243
517.00	0.35777
517.25	0.35981
517.50	0.36127
517.75	0.36549
518.00	0.36690
518.25	0.37204
518.50	0.37505
518.75	0.37418
519.00	0.37694
519.25	0.37942
519.50	0.38408
519.75	0.38700
520.00	0.38896
520.25	0.39022
520.50	0.39569
520.75	0.39581
521.00	0.39951
521.25	0.40050
521.50	0.40312
521.75	0.40471
522.00	0.40717
522.25	0.40879
522.50	0.41090
522.75	0.41449
523.00	0.41588
523.25	0.41817
523.50	0.41807
523.75	0.42080
524.00	0.41822
524.25	0.42242
524.50	0.42431
524.75	0.42650
525.00	0.42679
525.25	0.42835
525.50	0.43040
525.75	0.43034
526.00	0.43415
526.25	0.43558
526.50	0.43431
526.75	0.43787
527.00	0.43582
527.25	0.43742
527.50	0.43839
527.75	0.44098
528.00	0.44181
528.25	0.44095
528.50	0.44430
528.75	0.44402
529.00	0.44445
529.25	0.44783
529.50	0.44607
529.75	0.45113
530.00	0.45129
530.25	0.45221
530.50	0.45187
530.75	0.45524
531.00	0.45466
531.25	0.45622
531.50	0.45616
531.75	0.45784
532.00	0.45777
532.25	0.46236
532.50	0.46175
532.75	0.46563
533.00	0.46461
533.25	0.46667
533.50	0.46923
533.75	0.47015
534.00	0.47522
534.25	0.47428
534.50	0.47644
534.75	0.47796
535.00	0.48347
535.25	0.48448
535.50	0.48604
535.75	0.49127
536.00	0.49356
536.25	0.49738
536.50	0.49906
536.75	0.50445
537.00	0.50839
537.25	0.51126
537.50	0.51648
537.75	0.52156
538.00	0.52277
538.25	0.52866
538.50	0.53390
538.75	0.53817
539.00	0.54460
539.25	0.54797
539.50	0.55295
539.75	0.55677
540.00	0.56381
540.25	0.56820
540.50	0.57517
540.75	0.58069
541.00	0.58442
541.25	0.59241
541.50	0.59895
541.75	0.60371
542.00	0.60984
542.25	0.61702
542.50	0.62093
542.75	0.62822
543.00	0.63555
543.25	0.64210
543.50	0.64798
543.75	0.65398
544.00	0.65908
544.25	0.66747
544.50	0.67473
544.75	0.68127
545.00	0.68882
545.25	0.69312
545.50	0.70094
545.75	0.70633
546.00	0.71589
546.25	0.72412
546.50	0.72660
546.75	0.73534
547.00	0.74403
547.25	0.75138
547.50	0.75730
547.75	0.76430
548.00	0.77479
548.25	0.78158
548.50	0.78736
548.75	0.79482
549.00	0.80355
549.25	0.80946
549.50	0.81850
549.75	0.82243
550.00	0.83164
550.25	0.83584
550.50	0.84668
550.75	0.85420
551.00	0.85810
551.25	0.86273
551.50	0.87199
551.75	0.88165
552.00	0.88425
552.25	0.89289
552.50	0.89981
552.75	0.90221
553.00	0.90849
553.25	0.91357
553.50	0.92182
553.75	0.92957
554.00	0.93204
554.25	0.94092
554.50	0.94516
554.75	0.94919
555.00	0.95385
555.25	0.96246
555.50	0.96227
555.75	0.97017
556.00	0.97346
556.25	0.97735
556.50	0.98359
556.75	0.98339
557.00	0.98328
557.25	0.99112
557.50	0.99075
557.75	0.99180
558.00	0.99177
558.25	0.99588
558.50	0.99679
558.75	0.99603
559.00	0.99620
559.25	1.00000
559.50	0.99641
559.75	0.99588
560.00	0.99619
560.25	0.99233
560.50	0.99435
560.75	0.98694
561.00	0.98833
561.25	0.98288
561.50	0.98161
561.75	0.97482
562.00	0.97103
562.25	0.96968
562.50	0.96648
562.75	0.95660
563.00	0.95305
563.25	0.94671
563.50	0.93860
563.75	0.93388
564.00	0.92361
564.25	0.91430
564.50	0.90919
564.75	0.90092
565.00	0.88950
565.25	0.87852
565.50	0.86848
565.75	0.85650
566.00	0.84387
566.25	0.83148
566.50	0.81984
566.75	0.80423
567.00	0.79251
567.25	0.78051
567.50	0.76303
567.75	0.74885
568.00	0.72969
568.25	0.72005
568.50	0.70298
568.75	0.68968
569.00	0.67171
569.25	0.65629
569.50	0.64391
569.75	0.62287
570.00	0.60660
570.25	0.59094
570.50	0.57284
570.75	0.55787
571.00	0.54003
571.25	0.52585
571.50	0.51223
571.75	0.49961
572.00	0.48385
572.25	0.47223
572.50	0.45970
572.75	0.45001
573.00	0.43670
573.25	0.42323
573.50	0.40966
573.75	0.39519
574.00	0.38269
574.25	0.37203
574.50	0.35881
574.75	0.34466
575.00	0.33238
575.25	0.32048
575.50	0.30822
575.75	0.29750
576.00	0.28675
576.25	0.27704
576.50	0.26392
576.75	0.25286
577.00	0.24301
577.25	0.23213
577.50	0.22491
577.75	0.21821
578.00	0.20635
578.25	0.19785
578.50	0.18969
578.75	0.18223
579.00	0.17497
579.25	0.16795
579.50	0.16109
579.75	0.15406
580.00	0.14897
580.25	0.14268
580.50	0.13620
580.75	0.12917
581.00	0.12586
581.25	0.12103
581.50	0.11557
581.75	0.10992
582.00	0.10757
582.25	0.10231
582.50	0.098465
582.75	0.093391
583.00	0.089552
583.25	0.087467
583.50	0.083912
583.75	0.079235
584.00	0.075292
584.25	0.073702
584.50	0.070373
584.75	0.066557
585.00	0.065907
585.25	0.063514
585.50	0.059875
585.75	0.057453
586.00	0.055317
586.25	0.052840
586.50	0.049959
586.75	0.048808
587.00	0.046776
587.25	0.045471
587.50	0.044425
587.75	0.041713
588.00	0.040057
588.25	0.039142
588.50	0.036748
588.75	0.035718
589.00	0.033991
589.25	0.032863
589.50	0.034342
589.75	0.029311
590.00	0.029745
590.25	0.027771
590.50	0.027831
590.75	0.027086
591.00	0.025703
591.25	0.023954
591.50	0.023000
591.75	0.024855
592.00	0.022088
592.25	0.020728
592.50	0.020541
592.75	0.019654
593.00	0.019359
593.25	0.019165
593.50	0.018210
593.75	0.015930
594.00	0.016502
594.25	0.016672
594.50	0.015332
594.75	0.014741
595.00	0.013080
595.25	0.014480
595.50	0.013417
595.75	0.014106
596.00	0.012918
596.25	0.012966
596.50	0.011753
596.75	0.012993
597.00	0.0098416
597.25	0.012764
597.50	0.0095157
597.75	0.010154
598.00	0.010250
598.25	0.0077939
598.50	0.0089554
598.75	0.0085771
599.00	0.0091872
599.25	0.0084235
599.50	0.0062328
599.75	0.0094305
600.00	0.0075275
600.25	0.0093577
600.50	0.0066644
600.75	0.0085043
601.00	0.0070817
601.25	0.0079600
601.50	0.0067621
601.75	0.0081926
602.00	0.0067168
602.25	0.0084519
602.50	0.0058083
602.75	0.0085780
603.00	0.0059877
603.25	0.0058874
603.50	0.0057053
603.75	0.0068748
604.00	0.0053111
604.25	0.0048120
604.50	0.0050953
604.75	0.0061671
605.00	0.0049443
605.25	0.0064832
605.50	0.0046060
605.75	0.0043183
606.00	0.0036319
606.25	0.0049133
606.50	0.0033460
606.75	0.0050953
607.00	0.0043361
607.25	0.0029606
607.50	0.0056849
607.75	0.0027812
608.00	0.0035839
608.25	0.0041487
608.50	0.0047046
608.75	0.0051495
609.00	0.0033877
609.25	0.0049337
609.50	0.0023017
609.75	0.0064504
610.00	0.0047508
610.25	0.0041354
610.50	0.0035999
610.75	0.0053581
611.00	0.0020308
611.25	0.0034623
611.50	0.0042641
611.75	0.0040057
612.00	0.0040137
612.25	0.0032900
612.50	0.0033406
612.75	0.0030183
613.00	0.0055553
613.25	0.0038193
613.50	0.0029686
613.75	0.0040874
614.00	0.0062666
614.25	0.0045385
614.50	0.00085780
614.75	0.0046042
615.00	0.0018479
615.25	0.0043245
615.50	0.0051344
615.75	0.0059282
616.00	0.0049053
616.25	0.0036328
616.50	0.0041842
616.75	0.0018080
617.00	0.0045403
617.25	0.0038885
617.50	0.0049115
617.75	0.0029437
618.00	0.0028442
618.25	0.0029117
618.50	0.0028256
618.75	0.0042952
619.00	0.0039835
619.25	0.0042180
619.50	0.0039889
619.75	0.0033806
620.00	0.0026471
620.25	0.0027688
620.50	0.0039933
620.75	0.0014092
621.00	0.0020486
621.25	0.0021765
621.50	0.0054638
621.75	0.0033158
622.00	0.0044035
622.25	0.0063749
622.50	0.0027368
622.75	0.0052498
623.00	0.0026942
623.25	0.0022635
623.50	0.0027696
623.75	0.00067576
624.00	0.0053510
624.25	0.0042925
624.50	0.0054176
624.75	0.0033850
625.00	0.0041647
625.25	0.0027767
625.50	0.0040208
625.75	0.0026986
626.00	0.0015016
626.25	0.0037367
626.50	0.0043627
626.75	0.0034525
627.00	0.0046548
627.25	0.0037917
627.50	0.0045589
627.75	0.0035884
628.00	0.0034942
628.25	0.0034658
628.50	0.0034427
628.75	0.0039551
629.00	0.0032900
629.25	0.0050438
629.50	0.0042544
629.75	0.0010594
630.00	0.0037846
630.25	0.0038308
630.50	0.0027030
630.75	0.0040981
631.00	0.0034925
631.25	0.0034321
631.50	0.0066484
631.75	0.0029996
632.00	0.0040084
632.25	0.0028460
632.50	0.0051042
632.75	0.0059842
633.00	0.0029002
633.25	0.0054967
633.50	0.0026418
633.75	0.0052542
634.00	0.0027803
634.25	0.0038352
634.50	0.0047579
634.75	0.0044400
635.00	0.0026453
635.25	0.0025619
635.50	0.0039214
635.75	0.0033682
636.00	0.0026631
636.25	0.0061183
636.50	0.0060943
636.75	0.0035413
637.00	0.0051015
637.25	0.0035271
637.50	0.0053501
637.75	0.0052498
638.00	0.0044249
638.25	0.0034276
638.50	0.0055384
638.75	0.0061937
639.00	0.0046531
639.25	0.0036905
639.50	0.0058279
639.75	0.0011215
640.00	0.0014332
640.25	0.0031124
640.50	0.0062275
640.75	0.0033158
641.00	0.0047907
641.25	0.0065134
641.50	0.0050740
641.75	0.0033468
642.00	0.0044408
642.25	0.0031293
642.50	0.0041380
642.75	0.0046406
643.00	0.0052587
643.25	0.0027927
643.50	0.0038787
643.75	0.0051983
644.00	0.0042641
644.25	0.0032731
644.50	0.0061023
644.75	0.0020149
645.00	0.0040741
645.25	0.0058048
645.50	0.0045581
645.75	0.0029082
646.00	0.0050678
646.25	0.0039649
646.50	0.0046442
646.75	0.0062399
647.00	0.0029224
647.25	0.0046859
647.50	0.0028416
647.75	0.0043849
648.00	0.0044178
648.25	0.0025938
648.50	0.0036097
648.75	0.0016526
649.00	0.0051850
649.25	0.0036807
649.50	0.0041984
649.75	0.0022688
650.00	0.0042863
650.25	0.0034738
650.50	0.0066226
650.75	0.0051175
651.00	0.0038370
651.25	0.0044577
651.50	0.0055269
651.75	0.0039276
652.00	0.0019411
652.25	0.0056405
652.50	0.0050074
652.75	0.0061653
653.00	0.0050269
653.25	0.0055109
653.50	0.0024704
653.75	0.0032003
654.00	0.0050340
654.25	0.0059007
654.50	0.0046105
654.75	0.0052090
655.00	0.0019163
655.25	0.0024748
655.50	0.0054336
655.75	0.0029623
656.00	0.0035511
656.25	0.0018515
656.50	0.0017929
656.75	0.0033966
657.00	0.0049683
657.25	0.0050065
657.50	0.0042979
657.75	0.0043183
658.00	0.0042783
658.25	-9.5015e-05
658.50	0.0016872
658.75	0.0040119
659.00	0.0061120
659.25	0.0036789
659.50	0.0049861
659.75	0.0020557
660.00	0.0048209
660.25	0.0023470
660.50	0.0026258
660.75	0.0020477
661.00	0.0042091
661.25	0.0042597
661.50	0.0020184
661.75	0.0036985
662.00	0.0038175
662.25	0.0040874
662.50	0.0025059
662.75	0.0039134
663.00	0.0021747
663.25	0.0037207
663.50	0.0042126
663.75	0.0048307
664.00	0.0046682
664.25	0.0058874
664.50	0.0041363
664.75	0.0032154
665.00	0.0028256
665.25	0.0033255
665.50	0.0055242
665.75	0.0036274
666.00	0.0035147
666.25	0.0039906
666.50	0.0033886
666.75	0.0033699
667.00	0.0053075
667.25	0.0024109
667.50	0.0047410
667.75	0.0042730
668.00	0.0042703
668.25	0.0041478
668.50	0.0039285
668.75	0.0067869
669.00	0.0025761
669.25	0.0038699
669.50	0.0054327
669.75	0.0035085
670.00	0.0036417
670.25	0.0055304
670.50	0.0050971
670.75	0.0015398
671.00	0.0034632
671.25	0.00097324
671.50	0.0037971
671.75	0.0049745
672.00	0.0052267
672.25	0.0025317
672.50	0.0032323
672.75	0.0014883
673.00	0.0050393
673.25	0.0038796
673.50	0.0034010
673.75	0.0010913
674.00	0.0038042
674.25	0.0029188
674.50	0.0032323
674.75	0.0027590
675.00	0.0049603
675.25	0.0034632
675.50	0.0034871
675.75	0.0044959
676.00	0.0017342
676.25	0.0028194
676.50	0.0022590
676.75	0.0039667
677.00	0.0043485
677.25	0.0039027
677.50	0.0015913
677.75	0.0015300
678.00	0.0014936
678.25	0.0033300
678.50	0.0014075
678.75	0.0031133
679.00	0.0031817
679.25	0.0026098
679.50	0.0036736
679.75	0.0028664
680.00	0.0011713
680.25	0.0024642
680.50	0.0029286
680.75	0.0032847
681.00	0.0046060
681.25	0.0026613
681.50	0.0026089
681.75	0.0034419
682.00	0.0042632
682.25	0.0033921
682.50	0.0024597
682.75	0.0029561
683.00	0.0033646
683.25	0.0024704
683.50	0.0031763
683.75	0.0046708
684.00	0.0031097
684.25	0.0014856
684.50	-6.3935e-05
684.75	0.0026311
685.00	0.0044488
685.25	0.0026640
685.50	0.0019953
685.75	0.0012858
686.00	0.0027199
686.25	0.0014634
686.50	0.0038814
686.75	0.0023239
687.00	0.0022191
687.25	0.0037757
687.50	0.0024739
687.75	0.0036523
688.00	0.0023114
688.25	0.0052232
688.50	0.0021214
688.75	0.0036390
689.00	0.0041744
689.25	0.0039880
689.50	0.0025734
689.75	0.00057187
690.00	0.0031826
690.25	0.0043441
690.50	0.00035697
690.75	0.0019518
691.00	0.0020442
691.25	0.00040936
691.50	0.0028655
691.75	0.0022963
692.00	0.0042863
692.25	0.0011269
692.50	0.0014421
692.75	0.0012272
693.00	0.0049852
693.25	0.0022013
693.50	0.0032021
693.75	0.00086846
694.00	-0.0011970
694.25	0.00029037
694.50	0.0012210
694.75	0.0018674
695.00	0.00014918
695.25	0.0037669
695.50	0.0027812
695.75	0.0011757
696.00	0.00041292
696.25	0.0010762
696.50	0.00054079
696.75	0.00095548
697.00	0.0029659
697.25	0.0022555
697.50	0.00065978
697.75	0.0028771
698.00	-0.00062159
698.25	0.0031222
698.50	0.0023452
698.75	0.0028922
699.00	0.0028078
699.25	0.0019394
699.50	0.0025627
699.75	0.0022937
700.00	0.0027022
