Wavelength (nm)	K15 abs N
220.00	0.12536
220.25	0.12479
220.50	0.12386
220.75	0.12160
221.00	0.12317
221.25	0.12115
221.50	0.11944
221.75	0.11911
222.00	0.11717
222.25	0.11542
222.50	0.11585
222.75	0.11515
223.00	0.11389
223.25	0.11126
223.50	0.10975
223.75	0.10926
224.00	0.10750
224.25	0.10624
224.50	0.10565
224.75	0.10327
225.00	0.10253
225.25	0.099795
225.50	0.099830
225.75	0.097483
226.00	0.096429
226.25	0.094446
226.50	0.093646
226.75	0.091587
227.00	0.091240
227.25	0.089821
227.50	0.090122
227.75	0.085608
228.00	0.085738
228.25	0.083937
228.50	0.083302
228.75	0.081701
229.00	0.079412
229.25	0.077359
229.50	0.075811
229.75	0.075176
230.00	0.073640
230.25	0.073546
230.50	0.071292
230.75	0.069474
231.00	0.067703
231.25	0.068686
231.50	0.066767
231.75	0.064172
232.00	0.062554
232.25	0.063855
232.50	0.060018
232.75	0.059006
233.00	0.057523
233.25	0.056317
233.50	0.054505
233.75	0.055058
234.00	0.052351
234.25	0.052857
234.50	0.050886
234.75	0.049250
235.00	0.047161
235.25	0.045973
235.50	0.046096
235.75	0.043878
236.00	0.043507
236.25	0.042654
236.50	0.040648
236.75	0.039259
237.00	0.040412
237.25	0.039312
237.50	0.036546
237.75	0.036588
238.00	0.035428
238.25	0.034210
238.50	0.033404
238.75	0.033169
239.00	0.032451
239.25	0.032151
239.50	0.031657
239.75	0.029797
240.00	0.031004
240.25	0.028444
240.50	0.028856
240.75	0.028185
241.00	0.028091
241.25	0.026079
241.50	0.026567
241.75	0.026184
242.00	0.026320
242.25	0.024743
242.50	0.025614
242.75	0.025208
243.00	0.024478
243.25	0.023766
243.50	0.022954
243.75	0.022413
244.00	0.022677
244.25	0.021312
244.50	0.021683
244.75	0.022566
245.00	0.020671
245.25	0.020600
245.50	0.019859
245.75	0.019635
246.00	0.020088
246.25	0.019559
246.50	0.019118
246.75	0.018064
247.00	0.018582
247.25	0.017464
247.50	0.018094
247.75	0.018912
248.00	0.018794
248.25	0.018765
248.50	0.018729
248.75	0.018582
249.00	0.016935
249.25	0.016652
249.50	0.017617
249.75	0.016534
250.00	0.016958
250.25	0.015511
250.50	0.014363
250.75	0.015022
251.00	0.014087
251.25	0.014304
251.50	0.014722
251.75	0.014222
252.00	0.013192
252.25	0.013586
252.50	0.012845
252.75	0.011968
253.00	0.012598
253.25	0.013875
253.50	0.013940
253.75	0.013975
254.00	0.014463
254.25	0.013757
254.50	0.012745
254.75	0.013398
255.00	0.013386
255.25	0.014016
255.50	0.012380
255.75	0.011857
256.00	0.010509
256.25	0.010344
256.50	0.0095029
256.75	0.0094382
257.00	0.0096971
257.25	0.0083084
257.50	0.0067962
257.75	0.0068786
258.00	0.0062490
258.25	0.0058018
258.50	0.0051545
258.75	0.0041483
259.00	0.0043660
259.25	0.0042425
259.50	0.0040542
259.75	0.0037835
260.00	0.0039012
260.25	0.0046132
260.50	0.0047485
260.75	0.0043719
261.00	0.0027420
261.25	0.0030362
261.50	0.0024890
261.75	0.0022477
262.00	0.0013592
262.25	0.00087085
262.50	0.0012592
262.75	0.00087085
263.00	0.00044131
263.25	0.00030598
263.50	0.00045896
263.75	0.00049427
264.00	0.00062548
264.25	0.00084732
264.50	0.00081201
264.75	0.00090027
265.00	0.00088262
265.25	0.00088262
265.50	0.00085320
265.75	0.00071787
266.00	0.00030009
266.25	0.00040601
266.50	0.00060371
266.75	0.00060312
267.00	0.00061666
267.25	0.00072375
267.50	0.00030009
267.75	0.00061077
268.00	0.00040601
268.25	0.00055899
268.50	0.00067668
268.75	0.0013416
269.00	0.00076494
269.25	0.0018123
269.50	0.00098854
269.75	0.0012769
270.00	0.0015240
270.25	0.00082966
270.50	0.0010886
270.75	0.0021595
271.00	0.0023654
271.25	0.0020712
271.50	0.0019653
271.75	0.0010827
272.00	0.0017652
272.25	0.0017005
272.50	0.0025773
272.75	0.0018182
273.00	0.0028126
273.25	0.0030833
273.50	0.0028067
273.75	0.0021242
274.00	0.0025243
274.25	0.0024184
274.50	0.0031892
274.75	0.0028362
275.00	0.0032186
275.25	0.0024596
275.50	0.0038070
275.75	0.0038541
276.00	0.0032480
276.25	0.0031833
276.50	0.0030303
276.75	0.0039777
277.00	0.0036423
277.25	0.0039012
277.50	0.0040895
277.75	0.0040365
278.00	0.0043660
278.25	0.0030480
278.50	0.0040895
278.75	0.0039012
279.00	0.0038541
279.25	0.0054016
279.50	0.0041483
279.75	0.0054193
280.00	0.0062490
280.25	0.0046132
280.50	0.0046426
280.75	0.0059077
281.00	0.0057782
281.25	0.0058135
281.50	0.0057900
281.75	0.0061254
282.00	0.0061607
282.25	0.0062843
282.50	0.0059430
282.75	0.0058900
283.00	0.0059253
283.25	0.0060783
283.50	0.0072081
283.75	0.0070433
284.00	0.0072787
284.25	0.0071610
284.50	0.0074023
284.75	0.0071492
285.00	0.0077788
285.25	0.0077671
285.50	0.0075964
285.75	0.0086203
286.00	0.0089615
286.25	0.0076376
286.50	0.0090204
286.75	0.010115
287.00	0.010450
287.25	0.0090086
287.50	0.0096618
287.75	0.0099854
288.00	0.0093793
288.25	0.010062
288.50	0.010909
288.75	0.010662
289.00	0.011209
289.25	0.011145
289.50	0.010574
289.75	0.011915
290.00	0.012280
290.25	0.012510
290.50	0.014081
290.75	0.014310
291.00	0.013116
291.25	0.014446
291.50	0.013698
291.75	0.013316
292.00	0.013969
292.25	0.014816
292.50	0.015705
292.75	0.016693
293.00	0.016752
293.25	0.017093
293.50	0.015975
293.75	0.016652
294.00	0.017429
294.25	0.016599
294.50	0.018341
294.75	0.018965
295.00	0.018294
295.25	0.017558
295.50	0.017953
295.75	0.018970
296.00	0.019465
296.25	0.020824
296.50	0.020977
296.75	0.020877
297.00	0.022430
297.25	0.021336
297.50	0.022148
297.75	0.021765
298.00	0.023019
298.25	0.022760
298.50	0.023590
298.75	0.024713
299.00	0.024084
299.25	0.024796
299.50	0.023996
299.75	0.025102
300.00	0.024755
300.25	0.027096
300.50	0.026226
300.75	0.027726
301.00	0.026302
301.25	0.026826
301.50	0.027667
301.75	0.027873
302.00	0.026708
302.25	0.028362
302.50	0.029026
302.75	0.030274
303.00	0.028850
303.25	0.029815
303.50	0.029485
303.75	0.031015
304.00	0.029880
304.25	0.031833
304.50	0.031657
304.75	0.032163
305.00	0.032622
305.25	0.032628
305.50	0.032645
305.75	0.031639
306.00	0.033440
306.25	0.033428
306.50	0.034246
306.75	0.034481
307.00	0.035246
307.25	0.034922
307.50	0.033528
307.75	0.035734
308.00	0.034969
308.25	0.036794
308.50	0.037005
308.75	0.037229
309.00	0.037435
309.25	0.038323
309.50	0.036947
309.75	0.038135
310.00	0.041407
310.25	0.039006
310.50	0.040671
310.75	0.037576
311.00	0.044784
311.25	0.038447
311.50	0.042001
311.75	0.037541
312.00	0.040189
312.25	0.038065
312.50	0.040842
312.75	0.042395
313.00	0.042425
313.25	0.042960
313.50	0.042066
313.75	0.044896
314.00	0.042342
314.25	0.043660
314.50	0.045773
314.75	0.046614
315.00	0.042107
315.25	0.043466
315.50	0.045043
315.75	0.047367
316.00	0.047250
316.25	0.045343
316.50	0.046573
316.75	0.048615
317.00	0.043207
317.25	0.045902
317.50	0.048079
317.75	0.045461
318.00	0.044402
318.25	0.047261
318.50	0.043772
318.75	0.046391
319.00	0.049091
319.25	0.048032
319.50	0.049403
319.75	0.047256
320.00	0.050604
320.25	0.048838
320.50	0.052322
320.75	0.052887
321.00	0.052192
321.25	0.048168
321.50	0.048038
321.75	0.053481
322.00	0.053193
322.25	0.050592
322.50	0.051786
322.75	0.054093
323.00	0.056594
323.25	0.057059
323.50	0.057229
323.75	0.056199
324.00	0.053151
324.25	0.056158
324.50	0.058559
324.75	0.053781
325.00	0.057441
325.25	0.060666
325.50	0.059918
325.75	0.058812
326.00	0.056676
326.25	0.057718
326.50	0.058730
326.75	0.059365
327.00	0.061330
327.25	0.059147
327.50	0.060760
327.75	0.057423
328.00	0.057906
328.25	0.057170
328.50	0.055234
328.75	0.060118
329.00	0.057417
329.25	0.056282
329.50	0.057900
329.75	0.050398
330.00	0.055605
330.25	0.051063
330.50	0.054152
330.75	0.053369
331.00	0.051151
331.25	0.052687
331.50	0.047279
331.75	0.051110
332.00	0.051504
332.25	0.048379
332.50	0.048656
332.75	0.045561
333.00	0.044060
333.25	0.043384
333.50	0.042548
333.75	0.049221
334.00	0.041489
334.25	0.042219
334.50	0.041330
334.75	0.039324
335.00	0.041112
335.25	0.040200
335.50	0.038582
335.75	0.040253
336.00	0.037664
336.25	0.037141
336.50	0.037247
336.75	0.038559
337.00	0.038659
337.25	0.036411
337.50	0.035776
337.75	0.036105
338.00	0.036623
338.25	0.036329
338.50	0.035729
338.75	0.035352
339.00	0.032433
339.25	0.038588
339.50	0.033834
339.75	0.029709
340.00	0.034458
340.25	0.032469
340.50	0.031009
340.75	0.033404
341.00	0.033328
341.25	0.029062
341.50	0.034004
341.75	0.028768
342.00	0.028109
342.25	0.033110
342.50	0.026384
342.75	0.029997
343.00	0.028279
343.25	0.032757
343.50	0.027297
343.75	0.029933
344.00	0.029974
344.25	0.029238
344.50	0.025908
344.75	0.027138
345.00	0.028968
345.25	0.028314
345.50	0.027061
345.75	0.028832
346.00	0.026149
346.25	0.027361
346.50	0.029274
346.75	0.025390
347.00	0.028373
347.25	0.026326
347.50	0.027956
347.75	0.023278
348.00	0.026926
348.25	0.027220
348.50	0.026014
348.75	0.027514
349.00	0.025384
349.25	0.022907
349.50	0.030362
349.75	0.026067
350.00	0.026896
350.25	0.025025
350.50	0.024207
350.75	0.024760
351.00	0.025049
351.25	0.024449
351.50	0.024154
351.75	0.025043
352.00	0.024602
352.25	0.025037
352.50	0.024961
352.75	0.024637
353.00	0.025114
353.25	0.023619
353.50	0.021483
353.75	0.024737
354.00	0.023384
354.25	0.024407
354.50	0.023460
354.75	0.024525
355.00	0.023854
355.25	0.023666
355.50	0.025543
355.75	0.021436
356.00	0.022472
356.25	0.024731
356.50	0.021230
356.75	0.023248
357.00	0.021371
357.25	0.024425
357.50	0.021995
357.75	0.023083
358.00	0.020047
358.25	0.021048
358.50	0.022101
358.75	0.022907
359.00	0.022301
359.25	0.021565
359.50	0.019877
359.75	0.023089
360.00	0.022683
360.25	0.023013
360.50	0.022878
360.75	0.021642
361.00	0.022572
361.25	0.021265
361.50	0.020400
361.75	0.021283
362.00	0.022548
362.25	0.021701
362.50	0.020624
362.75	0.021801
363.00	0.022254
363.25	0.019318
363.50	0.021542
363.75	0.020018
364.00	0.022277
364.25	0.020236
364.50	0.019983
364.75	0.020377
365.00	0.020036
365.25	0.021536
365.50	0.021218
365.75	0.022442
366.00	0.020683
366.25	0.019529
366.50	0.019441
366.75	0.018688
367.00	0.019429
367.25	0.019988
367.50	0.020188
367.75	0.019029
368.00	0.020883
368.25	0.019453
368.50	0.019324
368.75	0.019730
369.00	0.017176
369.25	0.017470
369.50	0.020677
369.75	0.016976
370.00	0.016399
370.25	0.018100
370.50	0.015052
370.75	0.014887
371.00	0.017735
371.25	0.015881
371.50	0.016882
371.75	0.017476
372.00	0.015263
372.25	0.016358
372.50	0.014175
372.75	0.015175
373.00	0.013139
373.25	0.019094
373.50	0.015028
373.75	0.015569
374.00	0.015275
374.25	0.014563
374.50	0.014422
374.75	0.013157
375.00	0.014381
375.25	0.015770
375.50	0.014810
375.75	0.014204
376.00	0.013928
376.25	0.016164
376.50	0.012145
376.75	0.012992
377.00	0.015352
377.25	0.013581
377.50	0.012545
377.75	0.012922
378.00	0.013604
378.25	0.010668
378.50	0.013545
378.75	0.011780
379.00	0.012357
379.25	0.010238
379.50	0.012015
379.75	0.012304
380.00	0.011274
380.25	0.012839
380.50	0.010433
380.75	0.012263
381.00	0.011945
381.25	0.010662
381.50	0.012798
381.75	0.011568
382.00	0.0098442
382.25	0.011445
382.50	0.010680
382.75	0.0096618
383.00	0.0096559
383.25	0.012168
383.50	0.012669
383.75	0.010280
384.00	0.011980
384.25	0.013845
384.50	0.0095617
384.75	0.012904
385.00	0.011133
385.25	0.012092
385.50	0.011598
385.75	0.010556
386.00	0.011398
386.25	0.010839
386.50	0.0097147
386.75	0.011474
387.00	0.011298
387.25	0.012204
387.50	0.011109
387.75	0.013033
388.00	0.012810
388.25	0.011739
388.50	0.012080
388.75	0.010050
389.00	0.011668
389.25	0.011115
389.50	0.012068
389.75	0.012110
390.00	0.012298
390.25	0.0097324
390.50	0.0096441
390.75	0.010150
391.00	0.0098324
391.25	0.011927
391.50	0.010150
391.75	0.010309
392.00	0.011009
392.25	0.011892
392.50	0.010727
392.75	0.012463
393.00	0.010003
393.25	0.011586
393.50	0.011762
393.75	0.010744
394.00	0.010238
394.25	0.011045
394.50	0.011103
394.75	0.012257
395.00	0.010415
395.25	0.010574
395.50	0.011492
395.75	0.012057
396.00	0.011003
396.25	0.010850
396.50	0.010862
396.75	0.011809
397.00	0.010568
397.25	0.010997
397.50	0.010021
397.75	0.011280
398.00	0.010486
398.25	0.011604
398.50	0.011621
398.75	0.011656
399.00	0.011580
399.25	0.011568
399.50	0.010886
399.75	0.011521
400.00	0.012027
400.25	0.011892
400.50	0.011933
400.75	0.012563
401.00	0.012045
401.25	0.011209
401.50	0.010491
401.75	0.010221
402.00	0.0098206
402.25	0.012439
402.50	0.011168
402.75	0.012204
403.00	0.012198
403.25	0.013433
403.50	0.011974
403.75	0.010238
404.00	0.011162
404.25	0.012133
404.50	0.011239
404.75	0.0099795
405.00	0.0099972
405.25	0.0099501
405.50	0.011515
405.75	0.012286
406.00	0.010527
406.25	0.012733
406.50	0.011868
406.75	0.012833
407.00	0.012839
407.25	0.013092
407.50	0.013186
407.75	0.012045
408.00	0.0096912
408.25	0.012486
408.50	0.011221
408.75	0.012333
409.00	0.010839
409.25	0.012062
409.50	0.012433
409.75	0.011880
410.00	0.013016
410.25	0.012498
410.50	0.011615
410.75	0.012610
411.00	0.012498
411.25	0.013539
411.50	0.013969
411.75	0.011633
412.00	0.012192
412.25	0.013687
412.50	0.012304
412.75	0.013510
413.00	0.012251
413.25	0.013357
413.50	0.010703
413.75	0.012710
414.00	0.012286
414.25	0.012574
414.50	0.012192
414.75	0.012486
415.00	0.013328
415.25	0.012851
415.50	0.011862
415.75	0.012916
416.00	0.012563
416.25	0.013422
416.50	0.012527
416.75	0.012674
417.00	0.012133
417.25	0.011298
417.50	0.013363
417.75	0.012645
418.00	0.013445
418.25	0.014098
418.50	0.012969
418.75	0.014287
419.00	0.013834
419.25	0.012674
419.50	0.012898
419.75	0.012627
420.00	0.011239
420.25	0.013104
420.50	0.012251
420.75	0.012969
421.00	0.013751
421.25	0.012957
421.50	0.013069
421.75	0.013063
422.00	0.013233
422.25	0.013180
422.50	0.012180
422.75	0.012457
423.00	0.011874
423.25	0.013822
423.50	0.012998
423.75	0.014822
424.00	0.014669
424.25	0.014098
424.50	0.014093
424.75	0.013239
425.00	0.013698
425.25	0.013763
425.50	0.013545
425.75	0.011686
426.00	0.012221
426.25	0.013775
426.50	0.013410
426.75	0.014051
427.00	0.013957
427.25	0.013904
427.50	0.013433
427.75	0.015758
428.00	0.014398
428.25	0.013516
428.50	0.011815
428.75	0.013751
429.00	0.013022
429.25	0.013322
429.50	0.013840
429.75	0.013728
430.00	0.013445
430.25	0.015646
430.50	0.015022
430.75	0.014034
431.00	0.014104
431.25	0.014681
431.50	0.012498
431.75	0.015446
432.00	0.014322
432.25	0.014010
432.50	0.014846
432.75	0.015205
433.00	0.015128
433.25	0.014757
433.50	0.013086
433.75	0.014475
434.00	0.015687
434.25	0.013734
434.50	0.014781
434.75	0.014028
435.00	0.013392
435.25	0.015346
435.50	0.014722
435.75	0.013534
436.00	0.015858
436.25	0.014034
436.50	0.013904
436.75	0.016034
437.00	0.014310
437.25	0.014710
437.50	0.014322
437.75	0.015434
438.00	0.014704
438.25	0.013863
438.50	0.014534
438.75	0.012433
439.00	0.014140
439.25	0.015711
439.50	0.015316
439.75	0.014975
440.00	0.015069
440.25	0.013981
440.50	0.014763
440.75	0.014728
441.00	0.014652
441.25	0.012580
441.50	0.016146
441.75	0.015152
442.00	0.015775
442.25	0.015705
442.50	0.016311
442.75	0.015358
443.00	0.016434
443.25	0.014181
443.50	0.015022
443.75	0.014775
444.00	0.017141
444.25	0.015699
444.50	0.014157
444.75	0.015505
445.00	0.014675
445.25	0.016040
445.50	0.015870
445.75	0.014263
446.00	0.014681
446.25	0.016276
446.50	0.015452
446.75	0.015722
447.00	0.015628
447.25	0.015246
447.50	0.016452
447.75	0.016540
448.00	0.016599
448.25	0.015752
448.50	0.014822
448.75	0.015752
449.00	0.015263
449.25	0.015093
449.50	0.014581
449.75	0.015534
450.00	0.016393
450.25	0.016293
450.50	0.016228
450.75	0.016205
451.00	0.014652
451.25	0.014587
451.50	0.016534
451.75	0.015281
452.00	0.016758
452.25	0.016052
452.50	0.015587
452.75	0.016387
453.00	0.016087
453.25	0.016081
453.50	0.016993
453.75	0.015434
454.00	0.015793
454.25	0.015469
454.50	0.016158
454.75	0.014834
455.00	0.016199
455.25	0.016005
455.50	0.015369
455.75	0.016323
456.00	0.016493
456.25	0.016211
456.50	0.015246
456.75	0.016399
457.00	0.014963
457.25	0.015640
457.50	0.015311
457.75	0.014693
458.00	0.016429
458.25	0.015052
458.50	0.016805
458.75	0.016252
459.00	0.016228
459.25	0.015628
459.50	0.015634
459.75	0.016417
460.00	0.015940
460.25	0.016846
460.50	0.016664
460.75	0.016346
461.00	0.015187
461.25	0.015717
461.50	0.016323
461.75	0.015734
462.00	0.015564
462.25	0.016158
462.50	0.016852
462.75	0.015634
463.00	0.016017
463.25	0.017193
463.50	0.016699
463.75	0.015699
464.00	0.016128
464.25	0.016499
464.50	0.015564
464.75	0.016729
465.00	0.017088
465.25	0.016552
465.50	0.015928
465.75	0.016264
466.00	0.017235
466.25	0.016882
466.50	0.016864
466.75	0.016299
467.00	0.017794
467.25	0.016452
467.50	0.015981
467.75	0.016417
468.00	0.016899
468.25	0.017994
468.50	0.016623
468.75	0.016240
469.00	0.016117
469.25	0.015558
469.50	0.016376
469.75	0.016381
470.00	0.016281
470.25	0.016458
470.50	0.016093
470.75	0.016629
471.00	0.016446
471.25	0.018017
471.50	0.016040
471.75	0.016823
472.00	0.016311
472.25	0.017076
472.50	0.017605
472.75	0.016793
473.00	0.017747
473.25	0.017017
473.50	0.016487
473.75	0.017570
474.00	0.017017
474.25	0.017099
474.50	0.017411
474.75	0.018200
475.00	0.016211
475.25	0.017217
475.50	0.017388
475.75	0.016682
476.00	0.017252
476.25	0.017535
476.50	0.017235
476.75	0.016552
477.00	0.016988
477.25	0.017076
477.50	0.016246
477.75	0.017570
478.00	0.016988
478.25	0.017017
478.50	0.017858
478.75	0.017258
479.00	0.016752
479.25	0.017558
479.50	0.016611
479.75	0.016676
480.00	0.018311
480.25	0.017358
480.50	0.018700
480.75	0.017441
481.00	0.017276
481.25	0.019129
481.50	0.017611
481.75	0.017617
482.00	0.016629
482.25	0.017299
482.50	0.018029
482.75	0.018700
483.00	0.017700
483.25	0.017729
483.50	0.017800
483.75	0.018141
484.00	0.018247
484.25	0.017800
484.50	0.018182
484.75	0.017535
485.00	0.018011
485.25	0.018400
485.50	0.017188
485.75	0.017441
486.00	0.018294
486.25	0.018317
486.50	0.016652
486.75	0.017494
487.00	0.017376
487.25	0.016840
487.50	0.018435
487.75	0.017594
488.00	0.018170
488.25	0.019335
488.50	0.018359
488.75	0.018953
489.00	0.017070
489.25	0.018494
489.50	0.018482
489.75	0.018523
490.00	0.017711
490.25	0.017794
490.50	0.018188
490.75	0.018453
491.00	0.018005
491.25	0.018688
491.50	0.018564
491.75	0.018317
492.00	0.019035
492.25	0.019306
492.50	0.016852
492.75	0.018812
493.00	0.019129
493.25	0.018247
493.50	0.019712
493.75	0.016346
494.00	0.018429
494.25	0.018306
494.50	0.018529
494.75	0.019782
495.00	0.021330
495.25	0.019394
495.50	0.018594
495.75	0.019477
496.00	0.019300
496.25	0.019500
496.50	0.019365
496.75	0.021059
497.00	0.020647
497.25	0.019159
497.50	0.019800
497.75	0.018953
498.00	0.019259
498.25	0.019359
498.50	0.019459
498.75	0.019018
499.00	0.020771
499.25	0.019847
499.50	0.020436
499.75	0.019312
500.00	0.019147
500.25	0.019977
500.50	0.019818
500.75	0.020389
501.00	0.019059
501.25	0.020200
501.50	0.021871
501.75	0.020512
502.00	0.020159
502.25	0.020736
502.50	0.021507
502.75	0.022101
503.00	0.020547
503.25	0.021507
503.50	0.020677
503.75	0.020394
504.00	0.021595
504.25	0.021548
504.50	0.022277
504.75	0.022248
505.00	0.022230
505.25	0.020447
505.50	0.022124
505.75	0.021330
506.00	0.023584
506.25	0.021901
506.50	0.022195
506.75	0.022989
507.00	0.021071
507.25	0.022660
507.50	0.023560
507.75	0.020712
508.00	0.023042
508.25	0.022978
508.50	0.023996
508.75	0.022289
509.00	0.022477
509.25	0.023313
509.50	0.022925
509.75	0.021966
510.00	0.023631
510.25	0.021736
510.50	0.022760
510.75	0.024749
511.00	0.022783
511.25	0.023743
511.50	0.022936
511.75	0.023278
512.00	0.022607
512.25	0.022866
512.50	0.024531
512.75	0.023572
513.00	0.023801
513.25	0.024884
513.50	0.022560
513.75	0.023178
514.00	0.023795
514.25	0.024660
514.50	0.024484
514.75	0.024407
515.00	0.025025
515.25	0.025514
515.50	0.024843
515.75	0.024149
516.00	0.024043
516.25	0.025343
516.50	0.024619
516.75	0.024808
517.00	0.025584
517.25	0.025043
517.50	0.025820
517.75	0.025625
518.00	0.026508
518.25	0.025784
518.50	0.026026
518.75	0.026767
519.00	0.026702
519.25	0.025696
519.50	0.026214
519.75	0.025996
520.00	0.025967
520.25	0.025396
520.50	0.026314
520.75	0.026573
521.00	0.025749
521.25	0.027491
521.50	0.027214
521.75	0.027985
522.00	0.026673
522.25	0.027255
522.50	0.026849
522.75	0.026108
523.00	0.028697
523.25	0.027061
523.50	0.029050
523.75	0.027826
524.00	0.029344
524.25	0.030168
524.50	0.027114
524.75	0.029085
525.00	0.028044
525.25	0.030356
525.50	0.029591
525.75	0.030492
526.00	0.028250
526.25	0.028503
526.50	0.030368
526.75	0.028515
527.00	0.030092
527.25	0.029891
527.50	0.031698
527.75	0.030333
528.00	0.030244
528.25	0.029497
528.50	0.030515
528.75	0.031474
529.00	0.031816
529.25	0.031310
529.50	0.030462
529.75	0.031745
530.00	0.032539
530.25	0.030327
530.50	0.032834
530.75	0.031827
531.00	0.032810
531.25	0.031933
531.50	0.032863
531.75	0.032822
532.00	0.033263
532.25	0.033810
532.50	0.032404
532.75	0.034969
533.00	0.033899
533.25	0.035034
533.50	0.035005
533.75	0.032292
534.00	0.036964
534.25	0.033510
534.50	0.035876
534.75	0.035417
535.00	0.034740
535.25	0.036164
535.50	0.035358
535.75	0.037100
536.00	0.036105
536.25	0.036288
536.50	0.036899
536.75	0.037105
537.00	0.037376
537.25	0.037394
537.50	0.038771
537.75	0.037264
538.00	0.038871
538.25	0.038929
538.50	0.040306
538.75	0.038865
539.00	0.039436
539.25	0.041719
539.50	0.040371
539.75	0.042007
540.00	0.041095
540.25	0.040536
540.50	0.040859
540.75	0.041207
541.00	0.041795
541.25	0.041560
541.50	0.042966
541.75	0.041977
542.00	0.042931
542.25	0.045220
542.50	0.043531
542.75	0.042719
543.00	0.044884
543.25	0.045602
543.50	0.045873
543.75	0.046773
544.00	0.046249
544.25	0.046655
544.50	0.046396
544.75	0.046238
545.00	0.047938
545.25	0.047432
545.50	0.048503
545.75	0.047915
546.00	0.048073
546.25	0.050221
546.50	0.048750
546.75	0.049815
547.00	0.048968
547.25	0.049109
547.50	0.050545
547.75	0.051498
548.00	0.053934
548.25	0.051204
548.50	0.051780
548.75	0.053004
549.00	0.053228
549.25	0.052969
549.50	0.053710
549.75	0.053781
550.00	0.053657
550.25	0.055358
550.50	0.053793
550.75	0.055129
551.00	0.055552
551.25	0.056829
551.50	0.055864
551.75	0.055929
552.00	0.058388
552.25	0.056906
552.50	0.058753
552.75	0.056588
553.00	0.058812
553.25	0.059265
553.50	0.058482
553.75	0.060177
554.00	0.059583
554.25	0.060130
554.50	0.061495
554.75	0.060460
555.00	0.061260
555.25	0.062684
555.50	0.063678
555.75	0.062731
556.00	0.065332
556.25	0.062548
556.50	0.063490
556.75	0.064284
557.00	0.064796
557.25	0.064420
557.50	0.064590
557.75	0.065355
558.00	0.067368
558.25	0.066767
558.50	0.065373
558.75	0.067009
559.00	0.068056
559.25	0.066279
559.50	0.069474
559.75	0.068391
560.00	0.068915
560.25	0.068444
560.50	0.069039
560.75	0.069674
561.00	0.070927
561.25	0.072104
561.50	0.072198
561.75	0.072216
562.00	0.070245
562.25	0.071004
562.50	0.072716
562.75	0.071963
563.00	0.073646
563.25	0.073210
563.50	0.075135
563.75	0.073322
564.00	0.074140
564.25	0.076011
564.50	0.074823
564.75	0.076370
565.00	0.076005
565.25	0.076617
565.50	0.076965
565.75	0.077212
566.00	0.078289
566.25	0.078477
566.50	0.079053
566.75	0.079507
567.00	0.080560
567.25	0.081378
567.50	0.081201
567.75	0.082490
568.00	0.081748
568.25	0.082843
568.50	0.081660
568.75	0.084714
569.00	0.083537
569.25	0.084767
569.50	0.084296
569.75	0.084802
570.00	0.084908
570.25	0.087262
570.50	0.088327
570.75	0.088286
571.00	0.089904
571.25	0.089780
571.50	0.090886
571.75	0.090239
572.00	0.091781
572.25	0.093523
572.50	0.092687
572.75	0.094947
573.00	0.093317
573.25	0.095576
573.50	0.094935
573.75	0.097318
574.00	0.097288
574.25	0.098177
574.50	0.099148
574.75	0.10107
575.00	0.10037
575.25	0.10135
575.50	0.10307
575.75	0.10109
576.00	0.10459
576.25	0.10358
576.50	0.10631
576.75	0.10534
577.00	0.10786
577.25	0.10899
577.50	0.10959
577.75	0.11076
578.00	0.11083
578.25	0.11291
578.50	0.11474
578.75	0.11573
579.00	0.11618
579.25	0.11900
579.50	0.12080
579.75	0.12000
580.00	0.12071
580.25	0.12326
580.50	0.12337
580.75	0.12565
581.00	0.12514
581.25	0.12832
581.50	0.12790
581.75	0.13126
582.00	0.13300
582.25	0.13288
582.50	0.13398
582.75	0.13608
583.00	0.13780
583.25	0.13892
583.50	0.14072
583.75	0.14243
584.00	0.14310
584.25	0.14510
584.50	0.14607
584.75	0.14821
585.00	0.14965
585.25	0.15153
585.50	0.15353
585.75	0.15394
586.00	0.15718
586.25	0.15838
586.50	0.15927
586.75	0.15972
587.00	0.16246
587.25	0.16508
587.50	0.16610
587.75	0.16673
588.00	0.16864
588.25	0.17152
588.50	0.17225
588.75	0.17466
589.00	0.17499
589.25	0.17666
589.50	0.17928
589.75	0.18071
590.00	0.18292
590.25	0.18278
590.50	0.18666
590.75	0.18946
591.00	0.18936
591.25	0.19171
591.50	0.19239
591.75	0.19492
592.00	0.19584
592.25	0.19732
592.50	0.20012
592.75	0.20094
593.00	0.20453
593.25	0.20600
593.50	0.20718
593.75	0.20816
594.00	0.21196
594.25	0.21238
594.50	0.21236
594.75	0.21736
595.00	0.21825
595.25	0.22104
595.50	0.22130
595.75	0.22191
596.00	0.22431
596.25	0.22683
596.50	0.22903
596.75	0.22942
597.00	0.23212
597.25	0.23199
597.50	0.23585
597.75	0.23568
598.00	0.23634
598.25	0.23923
598.50	0.24000
598.75	0.24289
599.00	0.24171
599.25	0.24309
599.50	0.24541
599.75	0.24615
600.00	0.24888
600.25	0.24940
600.50	0.25039
600.75	0.25222
601.00	0.25314
601.25	0.25374
601.50	0.25472
601.75	0.25678
602.00	0.25797
602.25	0.25933
602.50	0.25961
602.75	0.26153
603.00	0.26261
603.25	0.26233
603.50	0.26301
603.75	0.26289
604.00	0.26763
604.25	0.26621
604.50	0.26786
604.75	0.26844
605.00	0.26964
605.25	0.27064
605.50	0.26989
605.75	0.27155
606.00	0.27131
606.25	0.27288
606.50	0.27416
606.75	0.27469
607.00	0.27450
607.25	0.27564
607.50	0.27687
607.75	0.27570
608.00	0.27720
608.25	0.28065
608.50	0.27875
608.75	0.27897
609.00	0.27919
609.25	0.28003
609.50	0.27976
609.75	0.28247
610.00	0.28033
610.25	0.28373
610.50	0.28175
610.75	0.28323
611.00	0.28233
611.25	0.28383
611.50	0.28542
611.75	0.28670
612.00	0.28517
612.25	0.28575
612.50	0.28612
612.75	0.28792
613.00	0.28721
613.25	0.28895
613.50	0.28786
613.75	0.29001
614.00	0.28941
614.25	0.29000
614.50	0.28954
614.75	0.29020
615.00	0.29380
615.25	0.29262
615.50	0.29360
615.75	0.29361
616.00	0.29354
616.25	0.29488
616.50	0.29608
616.75	0.29717
617.00	0.29719
617.25	0.29797
617.50	0.29938
617.75	0.30034
618.00	0.30154
618.25	0.30328
618.50	0.30419
618.75	0.30666
619.00	0.30809
619.25	0.30752
619.50	0.30916
619.75	0.31121
620.00	0.31218
620.25	0.31407
620.50	0.31360
620.75	0.31814
621.00	0.31944
621.25	0.32019
621.50	0.32401
621.75	0.32483
622.00	0.32841
622.25	0.32835
622.50	0.33194
622.75	0.33414
623.00	0.33588
623.25	0.33954
623.50	0.33891
623.75	0.34486
624.00	0.34499
624.25	0.34915
624.50	0.35130
624.75	0.35523
625.00	0.35833
625.25	0.36010
625.50	0.36225
625.75	0.36595
626.00	0.36937
626.25	0.37268
626.50	0.37491
626.75	0.38100
627.00	0.38350
627.25	0.38788
627.50	0.38990
627.75	0.39441
628.00	0.39650
628.25	0.40103
628.50	0.40679
628.75	0.40885
629.00	0.41463
629.25	0.41664
629.50	0.42386
629.75	0.42612
630.00	0.43322
630.25	0.43681
630.50	0.44254
630.75	0.44737
631.00	0.45010
631.25	0.45726
631.50	0.46110
631.75	0.46763
632.00	0.47178
632.25	0.47634
632.50	0.48306
632.75	0.48650
633.00	0.49369
633.25	0.49989
633.50	0.50484
633.75	0.50967
634.00	0.51622
634.25	0.52234
634.50	0.52865
634.75	0.53749
635.00	0.54359
635.25	0.55198
635.50	0.55860
635.75	0.56607
636.00	0.57301
636.25	0.57992
636.50	0.58742
636.75	0.59425
637.00	0.59956
637.25	0.60641
637.50	0.61397
637.75	0.61897
638.00	0.62576
638.25	0.63505
638.50	0.64162
638.75	0.64769
639.00	0.65546
639.25	0.65969
639.50	0.66828
639.75	0.67565
640.00	0.68314
640.25	0.68853
640.50	0.69693
640.75	0.70337
641.00	0.71250
641.25	0.72049
641.50	0.72359
641.75	0.73400
642.00	0.74180
642.25	0.74514
642.50	0.75292
642.75	0.76288
643.00	0.76828
643.25	0.77434
643.50	0.78217
643.75	0.78994
644.00	0.79828
644.25	0.80377
644.50	0.81119
644.75	0.81872
645.00	0.82400
645.25	0.83173
645.50	0.83704
645.75	0.84611
646.00	0.85138
646.25	0.85674
646.50	0.86410
646.75	0.87048
647.00	0.87724
647.25	0.88250
647.50	0.88995
647.75	0.89317
648.00	0.90218
648.25	0.90759
648.50	0.91079
648.75	0.91851
649.00	0.92535
649.25	0.92872
649.50	0.93259
649.75	0.93986
650.00	0.94140
650.25	0.95056
650.50	0.95446
650.75	0.95860
651.00	0.96227
651.25	0.96839
651.50	0.97101
651.75	0.97214
652.00	0.97613
652.25	0.97983
652.50	0.98089
652.75	0.98547
653.00	0.98789
653.25	0.98806
653.50	0.99131
653.75	0.98971
654.00	0.99189
654.25	0.99297
654.50	0.99638
654.75	0.99394
655.00	0.99621
655.25	0.99687
655.50	0.99441
655.75	1.0000
656.00	0.99684
656.25	0.99625
656.50	0.99457
656.75	0.99301
657.00	0.99265
657.25	0.98787
657.50	0.98847
657.75	0.98474
658.00	0.98327
658.25	0.97793
658.50	0.97593
658.75	0.97021
659.00	0.97004
659.25	0.96491
659.50	0.95763
659.75	0.95486
660.00	0.94711
660.25	0.94728
660.50	0.93912
660.75	0.93380
661.00	0.92702
661.25	0.92063
661.50	0.91545
661.75	0.90779
662.00	0.89893
662.25	0.89287
662.50	0.88829
662.75	0.87617
663.00	0.87134
663.25	0.86180
663.50	0.85222
663.75	0.84369
664.00	0.83703
664.25	0.82541
664.50	0.81565
664.75	0.80850
665.00	0.79732
665.25	0.78748
665.50	0.77980
665.75	0.76936
666.00	0.76144
666.25	0.74886
666.50	0.74055
666.75	0.73158
667.00	0.72081
667.25	0.71002
667.50	0.70141
667.75	0.69024
668.00	0.67991
668.25	0.67046
668.50	0.66087
668.75	0.64739
669.00	0.64017
669.25	0.62800
669.50	0.61687
669.75	0.60677
670.00	0.59522
670.25	0.58628
670.50	0.57344
670.75	0.56390
671.00	0.55320
671.25	0.54446
671.50	0.53378
671.75	0.52266
672.00	0.51360
672.25	0.50179
672.50	0.49071
672.75	0.48123
673.00	0.47210
673.25	0.46188
673.50	0.45429
673.75	0.44391
674.00	0.43397
674.25	0.42677
674.50	0.41634
674.75	0.40709
675.00	0.39385
675.25	0.38192
675.50	0.37129
675.75	0.36250
676.00	0.35355
676.25	0.34439
676.50	0.33648
676.75	0.32862
677.00	0.32242
677.25	0.31332
677.50	0.30593
677.75	0.29920
678.00	0.29032
678.25	0.28488
678.50	0.27766
678.75	0.27146
679.00	0.26387
679.25	0.25724
679.50	0.25094
679.75	0.24480
680.00	0.23941
680.25	0.23309
680.50	0.22737
680.75	0.22178
681.00	0.21723
681.25	0.21110
681.50	0.20478
681.75	0.20097
682.00	0.19632
682.25	0.19142
682.50	0.18549
682.75	0.18084
683.00	0.17649
683.25	0.17205
683.50	0.16922
683.75	0.16338
684.00	0.15897
684.25	0.15537
684.50	0.15178
684.75	0.14662
685.00	0.14309
685.25	0.14115
685.50	0.13671
685.75	0.13285
686.00	0.12975
686.25	0.12674
686.50	0.12394
686.75	0.12149
687.00	0.11810
687.25	0.11408
687.50	0.11203
687.75	0.10883
688.00	0.10594
688.25	0.10277
688.50	0.10102
688.75	0.099877
689.00	0.096100
689.25	0.095453
689.50	0.091381
689.75	0.089092
690.00	0.086720
690.25	0.084502
690.50	0.084096
690.75	0.081760
691.00	0.081748
691.25	0.078689
691.50	0.077329
691.75	0.075700
692.00	0.073093
692.25	0.072981
692.50	0.070451
692.75	0.069350
693.00	0.068768
693.25	0.066850
693.50	0.065932
693.75	0.063584
694.00	0.064361
694.25	0.061713
694.50	0.062495
694.75	0.058606
695.00	0.058700
695.25	0.058618
695.50	0.057170
695.75	0.057453
696.00	0.054522
696.25	0.053369
696.50	0.053381
696.75	0.052116
697.00	0.052116
697.25	0.051116
697.50	0.049721
697.75	0.048791
698.00	0.049386
698.25	0.047273
698.50	0.046214
698.75	0.046314
699.00	0.046414
699.25	0.045790
699.50	0.044967
699.75	0.045590
700.00	0.042795
