Wavelength (nm)	K16 abs N
220.00	0.18755
220.25	0.18817
220.50	0.18654
220.75	0.18448
221.00	0.18357
221.25	0.18365
221.50	0.18161
221.75	0.18146
222.00	0.18096
222.25	0.17821
222.50	0.17919
222.75	0.17624
223.00	0.17403
223.25	0.17141
223.50	0.16955
223.75	0.16664
224.00	0.16494
224.25	0.16493
224.50	0.16213
224.75	0.15985
225.00	0.15663
225.25	0.15329
225.50	0.15130
225.75	0.14667
226.00	0.14403
226.25	0.14234
226.50	0.13993
226.75	0.13689
227.00	0.13445
227.25	0.13142
227.50	0.12783
227.75	0.12720
228.00	0.12311
228.25	0.12073
228.50	0.11908
228.75	0.11654
229.00	0.11412
229.25	0.11216
229.50	0.10816
229.75	0.10670
230.00	0.10622
230.25	0.10385
230.50	0.10168
230.75	0.099292
231.00	0.096377
231.25	0.093643
231.50	0.093108
231.75	0.090694
232.00	0.088836
232.25	0.088214
232.50	0.085239
232.75	0.083928
233.00	0.081815
233.25	0.081187
233.50	0.079088
233.75	0.078305
234.00	0.075397
234.25	0.075183
234.50	0.073251
234.75	0.070663
235.00	0.071405
235.25	0.068631
235.50	0.065956
235.75	0.065528
236.00	0.063402
236.25	0.063483
236.50	0.063717
236.75	0.061764
237.00	0.059658
237.25	0.060481
237.50	0.058214
237.75	0.058355
238.00	0.057592
238.25	0.057586
238.50	0.055540
238.75	0.054082
239.00	0.053888
239.25	0.051883
239.50	0.051615
239.75	0.051167
240.00	0.049389
240.25	0.051007
240.50	0.050492
240.75	0.049663
241.00	0.049944
241.25	0.048787
241.50	0.046694
241.75	0.047202
242.00	0.047029
242.25	0.044735
242.50	0.045324
242.75	0.045290
243.00	0.043425
243.25	0.043258
243.50	0.044194
243.75	0.042435
244.00	0.041633
244.25	0.041372
244.50	0.041519
244.75	0.040483
245.00	0.040490
245.25	0.039233
245.50	0.038985
245.75	0.039273
246.00	0.038029
246.25	0.039988
246.50	0.037983
246.75	0.038638
247.00	0.038330
247.25	0.036826
247.50	0.035422
247.75	0.036004
248.00	0.034760
248.25	0.034620
248.50	0.035596
248.75	0.034111
249.00	0.035302
249.25	0.034713
249.50	0.033550
249.75	0.033028
250.00	0.032179
250.25	0.032788
250.50	0.032320
250.75	0.032768
251.00	0.030735
251.25	0.030929
251.50	0.031029
251.75	0.030173
252.00	0.030214
252.25	0.029685
252.50	0.030474
252.75	0.028950
253.00	0.027332
253.25	0.027874
253.50	0.026864
253.75	0.026503
254.00	0.026717
254.25	0.026824
254.50	0.027205
254.75	0.026035
255.00	0.027212
255.25	0.025533
255.50	0.024952
255.75	0.024571
256.00	0.024317
256.25	0.025380
256.50	0.024297
256.75	0.024343
257.00	0.023608
257.25	0.023060
257.50	0.024123
257.75	0.024143
258.00	0.023427
258.25	0.024236
258.50	0.023274
258.75	0.022899
259.00	0.023300
259.25	0.022391
259.50	0.022124
259.75	0.021234
260.00	0.023013
260.25	0.022264
260.50	0.024036
260.75	0.022886
261.00	0.022117
261.25	0.022592
261.50	0.021395
261.75	0.022665
262.00	0.022110
262.25	0.021636
262.50	0.021488
262.75	0.021315
263.00	0.022371
263.25	0.021776
263.50	0.019884
263.75	0.021268
264.00	0.021408
264.25	0.021863
264.50	0.020766
264.75	0.021301
265.00	0.020927
265.25	0.018995
265.50	0.019550
265.75	0.019870
266.00	0.020807
266.25	0.020125
266.50	0.021288
266.75	0.020539
267.00	0.019937
267.25	0.020024
267.50	0.021435
267.75	0.019844
268.00	0.019743
268.25	0.019784
268.50	0.019730
268.75	0.019530
269.00	0.020071
269.25	0.019636
269.50	0.019456
269.75	0.019463
270.00	0.019028
270.25	0.019382
270.50	0.020265
270.75	0.017851
271.00	0.017851
271.25	0.018259
271.50	0.018801
271.75	0.019316
272.00	0.019864
272.25	0.019790
272.50	0.017724
272.75	0.018393
273.00	0.017524
273.25	0.017450
273.50	0.016775
273.75	0.018065
274.00	0.017617
274.25	0.017764
274.50	0.016975
274.75	0.015953
275.00	0.018306
275.25	0.017383
275.50	0.016969
275.75	0.018139
276.00	0.016869
276.25	0.017851
276.50	0.016755
276.75	0.016100
277.00	0.015919
277.25	0.016394
277.50	0.017357
277.75	0.016487
278.00	0.018099
278.25	0.017510
278.50	0.017357
278.75	0.016080
279.00	0.017103
279.25	0.016414
279.50	0.016641
279.75	0.016574
280.00	0.016060
280.25	0.016741
280.50	0.017591
280.75	0.017156
281.00	0.017069
281.25	0.017591
281.50	0.017477
281.75	0.016862
282.00	0.017290
282.25	0.017350
282.50	0.017103
282.75	0.016521
283.00	0.016407
283.25	0.017470
283.50	0.016855
283.75	0.018507
284.00	0.018172
284.25	0.017423
284.50	0.016407
284.75	0.019088
285.00	0.018059
285.25	0.017544
285.50	0.018146
285.75	0.018707
286.00	0.018881
286.25	0.017731
286.50	0.018226
286.75	0.018112
287.00	0.018466
287.25	0.019296
287.50	0.019697
287.75	0.020191
288.00	0.019369
288.25	0.019844
288.50	0.020633
288.75	0.019516
289.00	0.020158
289.25	0.020078
289.50	0.019322
289.75	0.020345
290.00	0.020773
290.25	0.019757
290.50	0.021642
290.75	0.021094
291.00	0.021990
291.25	0.022625
291.50	0.021896
291.75	0.022411
292.00	0.022692
292.25	0.022926
292.50	0.021676
292.75	0.021575
293.00	0.022204
293.25	0.022237
293.50	0.023401
293.75	0.023595
294.00	0.023829
294.25	0.024297
294.50	0.025426
294.75	0.024918
295.00	0.023842
295.25	0.024504
295.50	0.024190
295.75	0.024256
296.00	0.024604
296.25	0.024176
296.50	0.024297
296.75	0.024892
297.00	0.025226
297.25	0.026556
297.50	0.027252
297.75	0.027526
298.00	0.027820
298.25	0.025239
298.50	0.027954
298.75	0.026349
299.00	0.027105
299.25	0.026998
299.50	0.027171
299.75	0.026222
300.00	0.027686
300.25	0.029792
300.50	0.029291
300.75	0.027874
301.00	0.030160
301.25	0.029164
301.50	0.029117
301.75	0.029993
302.00	0.029699
302.25	0.030100
302.50	0.029471
302.75	0.029391
303.00	0.030274
303.25	0.029164
303.50	0.031317
303.75	0.030381
304.00	0.031210
304.25	0.030889
304.50	0.031705
304.75	0.030936
305.00	0.030922
305.25	0.031317
305.50	0.030514
305.75	0.031731
306.00	0.031751
306.25	0.031678
306.50	0.029478
306.75	0.032694
307.00	0.031350
307.25	0.032286
307.50	0.032032
307.75	0.031176
308.00	0.031678
308.25	0.033650
308.50	0.032326
308.75	0.030929
309.00	0.031918
309.25	0.031397
309.50	0.031872
309.75	0.032079
310.00	0.031778
310.25	0.033142
310.50	0.029217
310.75	0.031430
311.00	0.030240
311.25	0.031718
311.50	0.032146
311.75	0.032447
312.00	0.032654
312.25	0.033282
312.50	0.028576
312.75	0.028769
313.00	0.031999
313.25	0.029211
313.50	0.026717
313.75	0.031698
314.00	0.028957
314.25	0.029719
314.50	0.028134
314.75	0.031671
315.00	0.027419
315.25	0.027272
315.50	0.027867
315.75	0.034894
316.00	0.031557
316.25	0.030361
316.50	0.025500
316.75	0.028629
317.00	0.024805
317.25	0.028656
317.50	0.027171
317.75	0.030621
318.00	0.029699
318.25	0.024103
318.50	0.030066
318.75	0.032654
319.00	0.031063
319.25	0.026784
319.50	0.028970
319.75	0.023909
320.00	0.031089
320.25	0.031765
320.50	0.031243
320.75	0.027198
321.00	0.029672
321.25	0.024136
321.50	0.026015
321.75	0.024103
322.00	0.026837
322.25	0.026349
322.50	0.025961
322.75	0.027519
323.00	0.026523
323.25	0.027599
323.50	0.024383
323.75	0.025614
324.00	0.028676
324.25	0.022485
324.50	0.027974
324.75	0.026931
325.00	0.022351
325.25	0.025681
325.50	0.024758
325.75	0.025560
326.00	0.023668
326.25	0.024063
326.50	0.026924
326.75	0.025520
327.00	0.023153
327.25	0.025019
327.50	0.028863
327.75	0.022993
328.00	0.023936
328.25	0.024765
328.50	0.024524
328.75	0.024511
329.00	0.027553
329.25	0.022592
329.50	0.023334
329.75	0.022498
330.00	0.025186
330.25	0.024076
330.50	0.026396
330.75	0.025574
331.00	0.021495
331.25	0.022699
331.50	0.024544
331.75	0.026302
332.00	0.025132
332.25	0.024103
332.50	0.024925
332.75	0.023661
333.00	0.026409
333.25	0.022338
333.50	0.024103
333.75	0.026042
334.00	0.028843
334.25	0.026095
334.50	0.024022
334.75	0.023514
335.00	0.025186
335.25	0.025146
335.50	0.030220
335.75	0.026657
336.00	0.025848
336.25	0.029538
336.50	0.024129
336.75	0.024785
337.00	0.024664
337.25	0.024156
337.50	0.025627
337.75	0.028535
338.00	0.024791
338.25	0.029418
338.50	0.026276
338.75	0.028863
339.00	0.026322
339.25	0.023247
339.50	0.025727
339.75	0.028816
340.00	0.027459
340.25	0.027807
340.50	0.025333
340.75	0.030896
341.00	0.032213
341.25	0.030173
341.50	0.029966
341.75	0.029545
342.00	0.028315
342.25	0.031838
342.50	0.030234
342.75	0.032580
343.00	0.031912
343.25	0.032400
343.50	0.030568
343.75	0.032052
344.00	0.033804
344.25	0.037722
344.50	0.037053
344.75	0.033008
345.00	0.033276
345.25	0.037341
345.50	0.032727
345.75	0.035729
346.00	0.039681
346.25	0.035602
346.50	0.035977
346.75	0.036264
347.00	0.040824
347.25	0.040035
347.50	0.038116
347.75	0.040309
348.00	0.040824
348.25	0.040463
348.50	0.041165
348.75	0.041626
349.00	0.039353
349.25	0.041760
349.50	0.041874
349.75	0.043318
350.00	0.040109
350.25	0.044602
350.50	0.044902
350.75	0.044428
351.00	0.041987
351.25	0.045812
351.50	0.043010
351.75	0.045725
352.00	0.043097
352.25	0.043385
352.50	0.045143
352.75	0.047269
353.00	0.045845
353.25	0.044822
353.50	0.046514
353.75	0.047276
354.00	0.046694
354.25	0.046012
354.50	0.047590
354.75	0.048867
355.00	0.051140
355.25	0.049275
355.50	0.053053
355.75	0.051776
356.00	0.052230
356.25	0.055747
356.50	0.053380
356.75	0.056121
357.00	0.054544
357.25	0.058956
357.50	0.057739
357.75	0.060273
358.00	0.061062
358.25	0.060527
358.50	0.059478
358.75	0.062868
359.00	0.064151
359.25	0.066645
359.50	0.065274
359.75	0.066491
360.00	0.065983
360.25	0.068089
360.50	0.069466
360.75	0.071058
361.00	0.071934
361.25	0.070456
361.50	0.072729
361.75	0.073264
362.00	0.072616
362.25	0.072475
362.50	0.073725
362.75	0.073672
363.00	0.073478
363.25	0.074140
363.50	0.075103
363.75	0.074461
364.00	0.073926
364.25	0.075490
364.50	0.073251
364.75	0.070423
365.00	0.068504
365.25	0.068684
365.50	0.066645
365.75	0.065020
366.00	0.064806
366.25	0.061978
366.50	0.059919
366.75	0.060093
367.00	0.056141
367.25	0.056248
367.50	0.054630
367.75	0.050886
368.00	0.048968
368.25	0.050799
368.50	0.048861
368.75	0.048185
369.00	0.044448
369.25	0.044742
369.50	0.040610
369.75	0.040664
370.00	0.038250
370.25	0.037067
370.50	0.034947
370.75	0.036893
371.00	0.037428
371.25	0.032440
371.50	0.034472
371.75	0.030875
372.00	0.032293
372.25	0.029598
372.50	0.027018
372.75	0.028937
373.00	0.028235
373.25	0.028629
373.50	0.027265
373.75	0.026690
374.00	0.026416
374.25	0.026490
374.50	0.022592
374.75	0.022779
375.00	0.024517
375.25	0.024143
375.50	0.024410
375.75	0.021689
376.00	0.022578
376.25	0.023307
376.50	0.021462
376.75	0.020793
377.00	0.019743
377.25	0.020807
377.50	0.019162
377.75	0.020893
378.00	0.018787
378.25	0.019082
378.50	0.019155
378.75	0.018827
379.00	0.020867
379.25	0.019235
379.50	0.018827
379.75	0.018881
380.00	0.017504
380.25	0.017337
380.50	0.018192
380.75	0.019088
381.00	0.018480
381.25	0.015431
381.50	0.018687
381.75	0.017350
382.00	0.016487
382.25	0.017169
382.50	0.016695
382.75	0.018333
383.00	0.018834
383.25	0.016762
383.50	0.015792
383.75	0.017664
384.00	0.018125
384.25	0.018025
384.50	0.017584
384.75	0.016828
385.00	0.017778
385.25	0.018065
385.50	0.018172
385.75	0.018186
386.00	0.017798
386.25	0.017544
386.50	0.017056
386.75	0.016962
387.00	0.017684
387.25	0.017270
387.50	0.017076
387.75	0.018807
388.00	0.016441
388.25	0.017430
388.50	0.018413
388.75	0.017189
389.00	0.016648
389.25	0.018547
389.50	0.018306
389.75	0.016915
390.00	0.016160
390.25	0.018547
390.50	0.018212
390.75	0.017952
391.00	0.017784
391.25	0.018146
391.50	0.018667
391.75	0.018186
392.00	0.018774
392.25	0.017036
392.50	0.019382
392.75	0.017998
393.00	0.017577
393.25	0.016113
393.50	0.019122
393.75	0.018333
394.00	0.018012
394.25	0.019864
394.50	0.018587
394.75	0.018674
395.00	0.018353
395.25	0.017905
395.50	0.018446
395.75	0.018975
396.00	0.018700
396.25	0.017838
396.50	0.019222
396.75	0.019824
397.00	0.017464
397.25	0.019182
397.50	0.017871
397.75	0.016815
398.00	0.019630
398.25	0.017791
398.50	0.018981
398.75	0.020412
399.00	0.018440
399.25	0.017858
399.50	0.018754
399.75	0.018593
400.00	0.020105
400.25	0.019897
400.50	0.020071
400.75	0.019489
401.00	0.021288
401.25	0.018747
401.50	0.020613
401.75	0.019021
402.00	0.020760
402.25	0.020131
402.50	0.021208
402.75	0.021007
403.00	0.020258
403.25	0.019041
403.50	0.020318
403.75	0.021529
404.00	0.019536
404.25	0.018620
404.50	0.020372
404.75	0.021850
405.00	0.020011
405.25	0.021281
405.50	0.022445
405.75	0.020713
406.00	0.022110
406.25	0.021462
406.50	0.020679
406.75	0.023407
407.00	0.023387
407.25	0.022217
407.50	0.023220
407.75	0.024597
408.00	0.022211
408.25	0.022779
408.50	0.022812
408.75	0.022404
409.00	0.022692
409.25	0.022986
409.50	0.024531
409.75	0.026182
410.00	0.022806
410.25	0.024979
410.50	0.024029
410.75	0.025681
411.00	0.024604
411.25	0.025219
411.50	0.026282
411.75	0.027760
412.00	0.024176
412.25	0.026837
412.50	0.026991
412.75	0.026015
413.00	0.025306
413.25	0.025065
413.50	0.026496
413.75	0.025226
414.00	0.025841
414.25	0.024892
414.50	0.027044
414.75	0.027726
415.00	0.024979
415.25	0.025400
415.50	0.025286
415.75	0.024865
416.00	0.025560
416.25	0.024952
416.50	0.025199
416.75	0.027606
417.00	0.023782
417.25	0.025413
417.50	0.023106
417.75	0.025112
418.00	0.025968
418.25	0.025139
418.50	0.024898
418.75	0.022378
419.00	0.023849
419.25	0.023748
419.50	0.024083
419.75	0.022953
420.00	0.023802
420.25	0.023187
420.50	0.022164
420.75	0.023080
421.00	0.021850
421.25	0.021067
421.50	0.022371
421.75	0.020392
422.00	0.020686
422.25	0.020492
422.50	0.019977
422.75	0.019977
423.00	0.018540
423.25	0.020105
423.50	0.019971
423.75	0.018179
424.00	0.019623
424.25	0.018219
424.50	0.017316
424.75	0.018085
425.00	0.017270
425.25	0.016641
425.50	0.016207
425.75	0.016548
426.00	0.014910
426.25	0.015438
426.50	0.016554
426.75	0.016113
427.00	0.015150
427.25	0.014635
427.50	0.014635
427.75	0.014181
428.00	0.016287
428.25	0.013693
428.50	0.012830
428.75	0.013218
429.00	0.015424
429.25	0.013064
429.50	0.012937
429.75	0.013740
430.00	0.013198
430.25	0.012476
430.50	0.012269
430.75	0.011092
431.00	0.011781
431.25	0.012750
431.50	0.012857
431.75	0.011948
432.00	0.011607
432.25	0.010671
432.50	0.011119
432.75	0.010089
433.00	0.010992
433.25	0.011299
433.50	0.011313
433.75	0.0093870
434.00	0.0089457
434.25	0.010697
434.50	0.0096678
434.75	0.0096611
435.00	0.0090995
435.25	0.0089925
435.50	0.010203
435.75	0.0089457
436.00	0.0089390
436.25	0.0092800
436.50	0.0086850
436.75	0.0096010
437.00	0.0097347
437.25	0.010497
437.50	0.0088789
437.75	0.0089858
438.00	0.0084042
438.25	0.0097480
438.50	0.0077623
438.75	0.0085045
439.00	0.0080097
439.25	0.0076888
439.50	0.0079629
439.75	0.0087318
440.00	0.0084109
440.25	0.0084643
440.50	0.0081033
440.75	0.0090661
441.00	0.0091396
441.25	0.0077088
441.50	0.0077891
441.75	0.0098149
442.00	0.0083507
442.25	0.0069801
442.50	0.0070804
442.75	0.0077088
443.00	0.0076019
443.25	0.0093937
443.50	0.010263
443.75	0.0078426
444.00	0.0090193
444.25	0.0078091
444.50	0.0076019
444.75	0.0079228
445.00	0.0072208
445.25	0.0082103
445.50	0.0087719
445.75	0.0093736
446.00	0.0077891
446.25	0.0081635
446.50	0.0084242
446.75	0.0086516
447.00	0.0077490
447.25	0.0062847
447.50	0.0074347
447.75	0.0065923
448.00	0.0087786
448.25	0.0072943
448.50	0.0082972
448.75	0.0081568
449.00	0.0066993
449.25	0.0084777
449.50	0.0076620
449.75	0.0076353
450.00	0.0073545
450.25	0.0071673
450.50	0.0081301
450.75	0.0081702
451.00	0.0094338
451.25	0.0074213
451.50	0.0080164
451.75	0.0067795
452.00	0.0082437
452.25	0.0069667
452.50	0.0085379
452.75	0.0072876
453.00	0.0074748
453.25	0.0085713
453.50	0.0077824
453.75	0.0073144
454.00	0.0092867
454.25	0.0083908
454.50	0.0086048
454.75	0.0072007
455.00	0.0090260
455.25	0.0080966
455.50	0.0076086
455.75	0.0063315
456.00	0.0079562
456.25	0.0071740
456.50	0.0069801
456.75	0.0078559
457.00	0.0071606
457.25	0.0081902
457.50	0.0071673
457.75	0.0067594
458.00	0.0073077
458.25	0.0067594
458.50	0.0078559
458.75	0.0063984
459.00	0.0069600
459.25	0.0078760
459.50	0.0059638
459.75	0.0079830
460.00	0.0071071
460.25	0.0057967
460.50	0.0070202
460.75	0.0075551
461.00	0.0068932
461.25	0.0067060
461.50	0.0072943
461.75	0.0065522
462.00	0.0076687
462.25	0.0070871
462.50	0.0083039
462.75	0.0061577
463.00	0.0075551
463.25	0.0058435
463.50	0.0058970
463.75	0.0068932
464.00	0.0073144
464.25	0.0091129
464.50	0.0071606
464.75	0.0079896
465.00	0.0065254
465.25	0.0071405
465.50	0.0060842
465.75	0.0055493
466.00	0.0082170
466.25	0.0067060
466.50	0.0063449
466.75	0.0069065
467.00	0.0058769
467.25	0.0063249
467.50	0.0066525
467.75	0.0076420
468.00	0.0058167
468.25	0.0073545
468.50	0.0072141
468.75	0.0066658
469.00	0.0058635
469.25	0.0065388
469.50	0.0081367
469.75	0.0074213
470.00	0.0054089
470.25	0.0043191
470.50	0.0055760
470.75	0.0070336
471.00	0.0067193
471.25	0.0068263
471.50	0.0066926
471.75	0.0080833
472.00	0.0059973
472.25	0.0059438
472.50	0.0068865
472.75	0.0065990
473.00	0.0077155
473.25	0.0056696
473.50	0.0065054
473.75	0.0055827
474.00	0.0061176
474.25	0.0067260
474.50	0.0069199
474.75	0.0059638
475.00	0.0062179
475.25	0.0088588
475.50	0.0069801
475.75	0.0064118
476.00	0.0063449
476.25	0.0075150
476.50	0.0077490
476.75	0.0055560
477.00	0.0080231
477.25	0.0054691
477.50	0.0067594
477.75	0.0055560
478.00	0.0058568
478.25	0.0063182
478.50	0.0078960
478.75	0.0068397
479.00	0.0053554
479.25	0.0067260
479.50	0.0059705
479.75	0.0075684
480.00	0.0065522
480.25	0.0051348
480.50	0.0071004
480.75	0.0058100
481.00	0.0065054
481.25	0.0058234
481.50	0.0069466
481.75	0.0076286
482.00	0.0058769
482.25	0.0074481
482.50	0.0072408
482.75	0.0078091
483.00	0.0078693
483.25	0.0059705
483.50	0.0074615
483.75	0.0063783
484.00	0.0058635
484.25	0.0059103
484.50	0.0075618
484.75	0.0049141
485.00	0.0068998
485.25	0.0077824
485.50	0.0072341
485.75	0.0073077
486.00	0.0067594
486.25	0.0070737
486.50	0.0075216
486.75	0.0064318
487.00	0.0072676
487.25	0.0057031
487.50	0.0081902
487.75	0.0056630
488.00	0.0069333
488.25	0.0062847
488.50	0.0080231
488.75	0.0067528
489.00	0.0062379
489.25	0.0071807
489.50	0.0065990
489.75	0.0073879
490.00	0.0062112
490.25	0.0077623
490.50	0.0075016
490.75	0.0054490
491.00	0.0077690
491.25	0.0054758
491.50	0.0065656
491.75	0.0075885
492.00	0.0072475
492.25	0.0067461
492.50	0.0079963
492.75	0.0072743
493.00	0.0074815
493.25	0.0066725
493.50	0.0055560
493.75	0.0069801
494.00	0.0068998
494.25	0.0081234
494.50	0.0075016
494.75	0.0070469
495.00	0.0092399
495.25	0.0056295
495.50	0.0076821
495.75	0.0073478
496.00	0.0063382
496.25	0.0088922
496.50	0.0081167
496.75	0.0077356
497.00	0.0067996
497.25	0.0089591
497.50	0.0067594
497.75	0.0065990
498.00	0.0081167
498.25	0.0077824
498.50	0.0074748
498.75	0.0073545
499.00	0.0090126
499.25	0.0087117
499.50	0.0074615
499.75	0.0077623
500.00	0.0089324
500.25	0.0085045
500.50	0.0080431
500.75	0.0081033
501.00	0.0063717
501.25	0.0074347
501.50	0.0091530
501.75	0.0076019
502.00	0.0070871
502.25	0.0069533
502.50	0.0097815
502.75	0.0095675
503.00	0.0076152
503.25	0.0077824
503.50	0.0076687
503.75	0.0080565
504.00	0.0088321
504.25	0.0086649
504.50	0.0076754
504.75	0.0087518
505.00	0.0092733
505.25	0.0082571
505.50	0.0071673
505.75	0.0079696
506.00	0.0085580
506.25	0.0097815
506.50	0.0077356
506.75	0.0080699
507.00	0.0084510
507.25	0.0090326
507.50	0.0077222
507.75	0.0083707
508.00	0.0088120
508.25	0.0096010
508.50	0.0088588
508.75	0.0092800
509.00	0.0070403
509.25	0.0074481
509.50	0.0080365
509.75	0.0077289
510.00	0.0097079
510.25	0.0080365
510.50	0.0093937
510.75	0.0083908
511.00	0.0084109
511.25	0.0091931
511.50	0.0074615
511.75	0.0079094
512.00	0.0071004
512.25	0.0082571
512.50	0.0087318
512.75	0.0087184
513.00	0.0094672
513.25	0.0082571
513.50	0.0082237
513.75	0.0095608
514.00	0.0081033
514.25	0.0095341
514.50	0.0097748
514.75	0.0088454
515.00	0.0086248
515.25	0.0093669
515.50	0.0081033
515.75	0.0085847
516.00	0.0081167
516.25	0.0080431
516.50	0.0085245
516.75	0.0095475
517.00	0.0091998
517.25	0.0075016
517.50	0.0090460
517.75	0.0089591
518.00	0.0095408
518.25	0.0091797
518.50	0.0089524
518.75	0.0097480
519.00	0.0095742
519.25	0.0090995
519.50	0.010865
519.75	0.0091864
520.00	0.0096745
520.25	0.0096076
520.50	0.0082771
520.75	0.0094739
521.00	0.0093736
521.25	0.010029
521.50	0.010584
521.75	0.0081234
522.00	0.0097414
522.25	0.010891
522.50	0.0086048
522.75	0.0099820
523.00	0.011072
523.25	0.0086449
523.50	0.0095809
523.75	0.0096478
524.00	0.0099887
524.25	0.010183
524.50	0.0092332
524.75	0.010209
525.00	0.010891
525.25	0.0086783
525.50	0.0091196
525.75	0.010838
526.00	0.010296
526.25	0.0081301
526.50	0.011353
526.75	0.011547
527.00	0.011720
527.25	0.0087652
527.50	0.010015
527.75	0.0082504
528.00	0.010183
528.25	0.010377
528.50	0.0098416
528.75	0.010544
529.00	0.011680
529.25	0.012663
529.50	0.0097347
529.75	0.011613
530.00	0.011526
530.25	0.011466
530.50	0.0097681
530.75	0.011580
531.00	0.010664
531.25	0.011540
531.50	0.011941
531.75	0.010009
532.00	0.010437
532.25	0.011948
532.50	0.010557
532.75	0.011740
533.00	0.010717
533.25	0.011252
533.50	0.011032
533.75	0.011206
534.00	0.010022
534.25	0.0094071
534.50	0.012436
534.75	0.011687
535.00	0.010577
535.25	0.013439
535.50	0.010791
535.75	0.011560
536.00	0.011460
536.25	0.011814
536.50	0.011841
536.75	0.012509
537.00	0.011306
537.25	0.011754
537.50	0.012663
537.75	0.010851
538.00	0.013358
538.25	0.010256
538.50	0.011473
538.75	0.012496
539.00	0.013940
539.25	0.011874
539.50	0.012884
539.75	0.013298
540.00	0.012509
540.25	0.014602
540.50	0.012242
540.75	0.011359
541.00	0.013639
541.25	0.011767
541.50	0.014114
541.75	0.012315
542.00	0.014114
542.25	0.013506
542.50	0.012596
542.75	0.013191
543.00	0.013947
543.25	0.013104
543.50	0.011680
543.75	0.013171
544.00	0.011359
544.25	0.015017
544.50	0.014508
544.75	0.013017
545.00	0.014308
545.25	0.015144
545.50	0.016661
545.75	0.013285
546.00	0.013967
546.25	0.015578
546.50	0.013539
546.75	0.017169
547.00	0.014702
547.25	0.014903
547.50	0.013706
547.75	0.015197
548.00	0.015839
548.25	0.014248
548.50	0.016013
548.75	0.015190
549.00	0.016775
549.25	0.014649
549.50	0.016628
549.75	0.015672
550.00	0.015411
550.25	0.015458
550.50	0.013639
550.75	0.017089
551.00	0.015685
551.25	0.015612
551.50	0.016975
551.75	0.014916
552.00	0.015137
552.25	0.014930
552.50	0.015578
552.75	0.015899
553.00	0.016167
553.25	0.015919
553.50	0.017042
553.75	0.016240
554.00	0.015879
554.25	0.017952
554.50	0.017337
554.75	0.016741
555.00	0.015478
555.25	0.016648
555.50	0.017758
555.75	0.018273
556.00	0.018781
556.25	0.015725
556.50	0.018480
556.75	0.018112
557.00	0.016173
557.25	0.017149
557.50	0.019309
557.75	0.018259
558.00	0.017550
558.25	0.017423
558.50	0.017978
558.75	0.018507
559.00	0.018226
559.25	0.018995
559.50	0.019041
559.75	0.017724
560.00	0.019977
560.25	0.018299
560.50	0.018660
560.75	0.017905
561.00	0.018874
561.25	0.020178
561.50	0.018747
561.75	0.018908
562.00	0.018995
562.25	0.021850
562.50	0.021101
562.75	0.019657
563.00	0.020566
563.25	0.020860
563.50	0.020359
563.75	0.019797
564.00	0.021549
564.25	0.018774
564.50	0.021007
564.75	0.020586
565.00	0.021268
565.25	0.020359
565.50	0.020974
565.75	0.021870
566.00	0.020452
566.25	0.020399
566.50	0.023020
566.75	0.021094
567.00	0.021495
567.25	0.021936
567.50	0.022271
567.75	0.021783
568.00	0.022879
568.25	0.022371
568.50	0.021950
568.75	0.022752
569.00	0.022431
569.25	0.022378
569.50	0.021522
569.75	0.024644
570.00	0.022237
570.25	0.024811
570.50	0.022531
570.75	0.022271
571.00	0.024143
571.25	0.022063
571.50	0.024216
571.75	0.022879
572.00	0.024170
572.25	0.023127
572.50	0.022471
572.75	0.023073
573.00	0.022826
573.25	0.024604
573.50	0.023702
573.75	0.025199
574.00	0.024343
574.25	0.026329
574.50	0.024277
574.75	0.024524
575.00	0.023561
575.25	0.023755
575.50	0.026944
575.75	0.023608
576.00	0.025801
576.25	0.026436
576.50	0.025393
576.75	0.025500
577.00	0.025988
577.25	0.026082
577.50	0.025995
577.75	0.027506
578.00	0.025834
578.25	0.024029
578.50	0.026757
578.75	0.026556
579.00	0.027773
579.25	0.025915
579.50	0.026703
579.75	0.026857
580.00	0.027058
580.25	0.027044
580.50	0.027205
580.75	0.027640
581.00	0.027967
581.25	0.029204
581.50	0.028937
581.75	0.028689
582.00	0.029492
582.25	0.029485
582.50	0.030087
582.75	0.029231
583.00	0.029879
583.25	0.029605
583.50	0.030996
583.75	0.030575
584.00	0.030474
584.25	0.031043
584.50	0.031544
584.75	0.031638
585.00	0.029766
585.25	0.032239
585.50	0.031678
585.75	0.030394
586.00	0.032447
586.25	0.031965
586.50	0.032875
586.75	0.031343
587.00	0.034546
587.25	0.033182
587.50	0.033135
587.75	0.034218
588.00	0.032293
588.25	0.034653
588.50	0.032600
588.75	0.033436
589.00	0.034559
589.25	0.034767
589.50	0.035683
589.75	0.034472
590.00	0.035522
590.25	0.034800
590.50	0.035743
590.75	0.034406
591.00	0.036659
591.25	0.035275
591.50	0.036157
591.75	0.037167
592.00	0.035576
592.25	0.037327
592.50	0.037207
592.75	0.037307
593.00	0.037815
593.25	0.038223
593.50	0.038076
593.75	0.036946
594.00	0.038645
594.25	0.038558
594.50	0.039072
594.75	0.038564
595.00	0.039012
595.25	0.039774
595.50	0.038905
595.75	0.040884
596.00	0.040149
596.25	0.041406
596.50	0.040476
596.75	0.041225
597.00	0.042094
597.25	0.039520
597.50	0.042710
597.75	0.041406
598.00	0.042944
598.25	0.042710
598.50	0.043157
598.75	0.043712
599.00	0.043064
599.25	0.042656
599.50	0.044428
599.75	0.043940
600.00	0.044428
600.25	0.045190
600.50	0.044541
600.75	0.046581
601.00	0.045812
601.25	0.046233
601.50	0.046654
601.75	0.046507
602.00	0.048105
602.25	0.048359
602.50	0.046260
602.75	0.048098
603.00	0.048393
603.25	0.048847
603.50	0.049128
603.75	0.047236
604.00	0.048787
604.25	0.049904
604.50	0.049329
604.75	0.049081
605.00	0.048747
605.25	0.050552
605.50	0.051127
605.75	0.050953
606.00	0.050826
606.25	0.051214
606.50	0.052317
606.75	0.052063
607.00	0.053895
607.25	0.052725
607.50	0.053313
607.75	0.053942
608.00	0.053267
608.25	0.052605
608.50	0.054410
608.75	0.054992
609.00	0.054824
609.25	0.055714
609.50	0.055560
609.75	0.056971
610.00	0.057238
610.25	0.056516
610.50	0.056482
610.75	0.055613
611.00	0.058789
611.25	0.058020
611.50	0.058054
611.75	0.056830
612.00	0.059217
612.25	0.058508
612.50	0.058254
612.75	0.058829
613.00	0.059184
613.25	0.060093
613.50	0.061397
613.75	0.062640
614.00	0.061129
614.25	0.061223
614.50	0.063336
614.75	0.061363
615.00	0.063643
615.25	0.062366
615.50	0.063289
615.75	0.063329
616.00	0.063208
616.25	0.064432
616.50	0.065101
616.75	0.065355
617.00	0.064412
617.25	0.066210
617.50	0.065763
617.75	0.066144
618.00	0.066130
618.25	0.067046
618.50	0.068290
618.75	0.066946
619.00	0.067782
619.25	0.069380
619.50	0.069961
619.75	0.067327
620.00	0.070028
620.25	0.069406
620.50	0.069226
620.75	0.070697
621.00	0.069914
621.25	0.071339
621.50	0.071659
621.75	0.070931
622.00	0.072529
622.25	0.071245
622.50	0.072208
622.75	0.073191
623.00	0.074835
623.25	0.073792
623.50	0.072809
623.75	0.075089
624.00	0.074260
624.25	0.074648
624.50	0.075136
624.75	0.076279
625.00	0.077309
625.25	0.078332
625.50	0.078325
625.75	0.075464
626.00	0.078867
626.25	0.078452
626.50	0.080124
626.75	0.077831
627.00	0.079148
627.25	0.079308
627.50	0.080003
627.75	0.080933
628.00	0.079248
628.25	0.081728
628.50	0.079983
628.75	0.081220
629.00	0.081902
629.25	0.083233
629.50	0.083273
629.75	0.082464
630.00	0.084356
630.25	0.083600
630.50	0.085359
630.75	0.084069
631.00	0.083975
631.25	0.083995
631.50	0.086422
631.75	0.087097
632.00	0.086101
632.25	0.085426
632.50	0.086770
632.75	0.087472
633.00	0.087759
633.25	0.087532
633.50	0.088568
633.75	0.087311
634.00	0.089290
634.25	0.089798
634.50	0.090086
634.75	0.089865
635.00	0.090601
635.25	0.091289
635.50	0.091169
635.75	0.091517
636.00	0.093435
636.25	0.091904
636.50	0.093944
636.75	0.093462
637.00	0.092727
637.25	0.094091
637.50	0.094405
637.75	0.093549
638.00	0.094211
638.25	0.096143
638.50	0.095180
638.75	0.095455
639.00	0.096885
639.25	0.096384
639.50	0.098002
639.75	0.097574
640.00	0.097240
640.25	0.098624
640.50	0.098945
640.75	0.098637
641.00	0.10057
641.25	0.10018
641.50	0.10135
641.75	0.10116
642.00	0.10147
642.25	0.10264
642.50	0.10077
642.75	0.10321
643.00	0.10169
643.25	0.10264
643.50	0.10454
643.75	0.10441
644.00	0.10567
644.25	0.10575
644.50	0.10649
644.75	0.10602
645.00	0.10635
645.25	0.10756
645.50	0.10647
645.75	0.10959
646.00	0.10848
646.25	0.11093
646.50	0.11024
646.75	0.11077
647.00	0.11175
647.25	0.11152
647.50	0.11313
647.75	0.11183
648.00	0.11383
648.25	0.11317
648.50	0.11502
648.75	0.11448
649.00	0.11424
649.25	0.11582
649.50	0.11564
649.75	0.11634
650.00	0.11730
650.25	0.11848
650.50	0.11858
650.75	0.11926
651.00	0.12009
651.25	0.12067
651.50	0.12086
651.75	0.12186
652.00	0.12196
652.25	0.12352
652.50	0.12329
652.75	0.12479
653.00	0.12317
653.25	0.12622
653.50	0.12610
653.75	0.12722
654.00	0.12660
654.25	0.12838
654.50	0.12929
654.75	0.12971
655.00	0.13219
655.25	0.13107
655.50	0.13054
655.75	0.13140
656.00	0.13328
656.25	0.13339
656.50	0.13474
656.75	0.13609
657.00	0.13613
657.25	0.13800
657.50	0.13666
657.75	0.13845
658.00	0.13953
658.25	0.13968
658.50	0.14269
658.75	0.14228
659.00	0.14297
659.25	0.14232
659.50	0.14355
659.75	0.14543
660.00	0.14631
660.25	0.14835
660.50	0.14916
660.75	0.15018
661.00	0.14956
661.25	0.15162
661.50	0.15291
661.75	0.15220
662.00	0.15404
662.25	0.15432
662.50	0.15652
662.75	0.15721
663.00	0.15799
663.25	0.15876
663.50	0.15901
663.75	0.16107
664.00	0.16064
664.25	0.16378
664.50	0.16354
664.75	0.16447
665.00	0.16601
665.25	0.16587
665.50	0.16822
665.75	0.16800
666.00	0.17003
666.25	0.16978
666.50	0.17261
666.75	0.17112
667.00	0.17369
667.25	0.17484
667.50	0.17587
667.75	0.17572
668.00	0.17752
668.25	0.17885
668.50	0.17948
668.75	0.18015
669.00	0.18265
669.25	0.18303
669.50	0.18394
669.75	0.18440
670.00	0.18676
670.25	0.18623
670.50	0.18855
670.75	0.18882
671.00	0.19023
671.25	0.19159
671.50	0.19376
671.75	0.19430
672.00	0.19580
672.25	0.19661
672.50	0.19651
672.75	0.19786
673.00	0.19836
673.25	0.20025
673.50	0.20172
673.75	0.20113
674.00	0.20445
674.25	0.20512
674.50	0.20489
674.75	0.20847
675.00	0.20893
675.25	0.20962
675.50	0.21055
675.75	0.21313
676.00	0.21300
676.25	0.21313
676.50	0.21487
676.75	0.21714
677.00	0.21699
677.25	0.21828
677.50	0.22011
677.75	0.22162
678.00	0.22142
678.25	0.22420
678.50	0.22403
678.75	0.22545
679.00	0.22640
679.25	0.22711
679.50	0.22840
679.75	0.22830
680.00	0.22987
680.25	0.23100
680.50	0.23318
680.75	0.23235
681.00	0.23434
681.25	0.23426
681.50	0.23619
681.75	0.23800
682.00	0.23724
682.25	0.23970
682.50	0.23956
682.75	0.24193
683.00	0.24232
683.25	0.24334
683.50	0.24509
683.75	0.24619
684.00	0.24600
684.25	0.24549
684.50	0.24795
684.75	0.24833
685.00	0.24922
685.25	0.25066
685.50	0.25041
685.75	0.25237
686.00	0.25390
686.25	0.25263
686.50	0.25553
686.75	0.25669
687.00	0.25651
687.25	0.25633
687.50	0.25854
687.75	0.25868
688.00	0.25915
688.25	0.25958
688.50	0.26180
688.75	0.26073
689.00	0.26343
689.25	0.26426
689.50	0.26452
689.75	0.26585
690.00	0.26531
690.25	0.26819
690.50	0.26773
690.75	0.26902
691.00	0.26897
691.25	0.27067
691.50	0.27154
691.75	0.27234
692.00	0.27051
692.25	0.27260
692.50	0.27348
692.75	0.27340
693.00	0.27362
693.25	0.27622
693.50	0.27541
693.75	0.27670
694.00	0.27613
694.25	0.27842
694.50	0.27841
694.75	0.27728
695.00	0.27883
695.25	0.27922
695.50	0.27925
695.75	0.28033
696.00	0.28080
696.25	0.28138
696.50	0.28003
696.75	0.28379
697.00	0.28269
697.25	0.28346
697.50	0.28380
697.75	0.28467
698.00	0.28477
698.25	0.28556
698.50	0.28542
698.75	0.28630
699.00	0.28717
699.25	0.28608
699.50	0.28828
699.75	0.28859
700.00	0.28917
700.25	0.28990
700.50	0.29044
700.75	0.29073
701.00	0.29117
701.25	0.29076
701.50	0.29193
701.75	0.29106
702.00	0.29276
702.25	0.29280
702.50	0.29322
702.75	0.29356
703.00	0.29463
703.25	0.29588
703.50	0.29380
703.75	0.29534
704.00	0.29516
704.25	0.29598
704.50	0.29635
704.75	0.29752
705.00	0.29754
705.25	0.29720
705.50	0.29836
705.75	0.29802
706.00	0.30000
706.25	0.29824
706.50	0.30057
706.75	0.30081
707.00	0.29927
707.25	0.30213
707.50	0.30093
707.75	0.30268
708.00	0.30270
708.25	0.30407
708.50	0.30432
708.75	0.30366
709.00	0.30616
709.25	0.30651
709.50	0.30700
709.75	0.30647
710.00	0.30824
710.25	0.30811
710.50	0.30879
710.75	0.31040
711.00	0.31138
711.25	0.31098
711.50	0.31126
711.75	0.31258
712.00	0.31354
712.25	0.31265
712.50	0.31511
712.75	0.31416
713.00	0.31674
713.25	0.31723
713.50	0.31884
713.75	0.31990
714.00	0.31913
714.25	0.32191
714.50	0.32119
714.75	0.32535
715.00	0.32448
715.25	0.32614
715.50	0.32660
715.75	0.32933
716.00	0.33016
716.25	0.33131
716.50	0.33359
716.75	0.33325
717.00	0.33518
717.25	0.33585
717.50	0.33729
717.75	0.33968
718.00	0.34111
718.25	0.34217
718.50	0.34342
718.75	0.34399
719.00	0.34652
719.25	0.34827
719.50	0.35131
719.75	0.34918
720.00	0.35376
720.25	0.35619
720.50	0.35567
720.75	0.35937
721.00	0.36036
721.25	0.36184
721.50	0.36485
721.75	0.36474
722.00	0.36805
722.25	0.36965
722.50	0.37198
722.75	0.37369
723.00	0.37619
723.25	0.37939
723.50	0.38158
723.75	0.38276
724.00	0.38556
724.25	0.38801
724.50	0.38994
724.75	0.39181
725.00	0.39400
725.25	0.39631
725.50	0.40006
725.75	0.40280
726.00	0.40544
726.25	0.40854
726.50	0.40978
726.75	0.41412
727.00	0.41503
727.25	0.41794
727.50	0.42074
727.75	0.42522
728.00	0.42778
728.25	0.43049
728.50	0.43418
728.75	0.43713
729.00	0.44054
729.25	0.44274
729.50	0.44665
729.75	0.45060
730.00	0.45449
730.25	0.45784
730.50	0.46043
730.75	0.46486
731.00	0.46652
731.25	0.47156
731.50	0.47564
731.75	0.47754
732.00	0.48159
732.25	0.48643
732.50	0.49081
732.75	0.49294
733.00	0.49841
733.25	0.50161
733.50	0.50465
733.75	0.50742
734.00	0.50993
734.25	0.51435
734.50	0.51635
734.75	0.52409
735.00	0.52623
735.25	0.53079
735.50	0.53681
735.75	0.53866
736.00	0.54475
736.25	0.54672
736.50	0.55381
736.75	0.55852
737.00	0.56161
737.25	0.56729
737.50	0.57084
737.75	0.57536
738.00	0.58351
738.25	0.58639
738.50	0.59238
738.75	0.59736
739.00	0.60146
739.25	0.60759
739.50	0.61246
739.75	0.61748
740.00	0.62206
740.25	0.62884
740.50	0.63264
740.75	0.63723
741.00	0.64317
741.25	0.64925
741.50	0.65352
741.75	0.65878
742.00	0.66419
742.25	0.66994
742.50	0.67530
742.75	0.67925
743.00	0.68777
743.25	0.69273
743.50	0.69548
743.75	0.70221
744.00	0.70923
744.25	0.71418
744.50	0.71933
744.75	0.72464
745.00	0.72972
745.25	0.73679
745.50	0.73995
745.75	0.74818
746.00	0.75338
746.25	0.75794
746.50	0.76385
746.75	0.77012
747.00	0.77378
747.25	0.77778
747.50	0.78415
747.75	0.79104
748.00	0.79616
748.25	0.80005
748.50	0.80897
748.75	0.81405
749.00	0.81697
749.25	0.82304
749.50	0.82756
749.75	0.83316
750.00	0.84031
750.25	0.84191
750.50	0.84653
750.75	0.85372
751.00	0.86012
751.25	0.86501
751.50	0.87105
751.75	0.87489
752.00	0.87718
752.25	0.88406
752.50	0.88877
752.75	0.89266
753.00	0.89455
753.25	0.90257
753.50	0.90611
753.75	0.90805
754.00	0.91630
754.25	0.91484
754.50	0.92150
754.75	0.92648
755.00	0.92923
755.25	0.93467
755.50	0.93749
755.75	0.94521
756.00	0.94714
756.25	0.95137
756.50	0.95542
756.75	0.95849
757.00	0.95757
757.25	0.96382
757.50	0.96496
757.75	0.97083
758.00	0.97322
758.25	0.97092
758.50	0.97582
758.75	0.97966
759.00	0.98274
759.25	0.98439
759.50	0.98564
759.75	0.98820
760.00	0.99127
760.25	0.99116
760.50	0.98927
760.75	0.99391
761.00	0.99324
761.25	0.99359
761.50	0.99609
761.75	0.99633
762.00	0.99510
762.25	0.99742
762.50	0.99710
762.75	0.99915
763.00	0.99746
763.25	1.00000
763.50	0.99425
763.75	0.99593
764.00	0.99647
764.25	0.99638
764.50	0.99871
764.75	0.99521
765.00	0.99405
765.25	0.99106
765.50	0.99319
765.75	0.98770
766.00	0.98852
766.25	0.98845
766.50	0.98644
766.75	0.98331
767.00	0.97940
767.25	0.97694
767.50	0.97524
767.75	0.97433
768.00	0.97018
768.25	0.96711
768.50	0.96332
768.75	0.96101
769.00	0.95931
769.25	0.95419
769.50	0.95110
769.75	0.94540
770.00	0.94081
770.25	0.93998
770.50	0.93504
770.75	0.93234
771.00	0.92590
771.25	0.92628
771.50	0.92088
771.75	0.91081
772.00	0.90762
772.25	0.90328
772.50	0.89745
772.75	0.89225
773.00	0.88695
773.25	0.88374
773.50	0.87689
773.75	0.86894
774.00	0.86610
774.25	0.86387
774.50	0.85556
774.75	0.85378
775.00	0.84564
775.25	0.83953
775.50	0.83479
775.75	0.82691
776.00	0.82259
776.25	0.81879
776.50	0.80930
776.75	0.80224
777.00	0.79313
777.25	0.78616
777.50	0.77966
777.75	0.77090
778.00	0.76584
778.25	0.76077
778.50	0.75207
778.75	0.74252
779.00	0.73607
779.25	0.72832
779.50	0.72043
779.75	0.71068
780.00	0.70586
780.25	0.69501
780.50	0.69103
780.75	0.68321
781.00	0.67406
781.25	0.66325
781.50	0.65800
781.75	0.65067
782.00	0.64062
782.25	0.63566
782.50	0.62657
782.75	0.61934
783.00	0.61069
783.25	0.60035
783.50	0.59232
783.75	0.58642
784.00	0.58052
784.25	0.57053
784.50	0.56496
784.75	0.55561
785.00	0.54808
785.25	0.54217
785.50	0.53340
785.75	0.52627
786.00	0.51975
786.25	0.50878
786.50	0.50174
786.75	0.49305
787.00	0.48747
787.25	0.47744
787.50	0.47347
787.75	0.46563
788.00	0.45794
788.25	0.45243
788.50	0.44495
788.75	0.43889
789.00	0.43044
789.25	0.42454
789.50	0.41755
789.75	0.41080
790.00	0.40429
790.25	0.39718
790.50	0.39103
790.75	0.38332
791.00	0.37771
791.25	0.37134
791.50	0.36658
791.75	0.35690
792.00	0.35208
792.25	0.34652
792.50	0.33928
792.75	0.33486
793.00	0.32746
793.25	0.32234
793.50	0.31648
793.75	0.31215
794.00	0.30479
794.25	0.29997
794.50	0.29594
794.75	0.28850
795.00	0.28342
795.25	0.27516
795.50	0.26908
795.75	0.26314
796.00	0.25915
796.25	0.25342
796.50	0.24890
796.75	0.24458
797.00	0.23801
797.25	0.23393
797.50	0.23176
797.75	0.22583
798.00	0.22350
798.25	0.21982
798.50	0.21494
798.75	0.21105
799.00	0.20496
799.25	0.20332
799.50	0.19967
799.75	0.19473
800.00	0.19169
800.25	0.18850
800.50	0.18559
800.75	0.18123
801.00	0.17722
801.25	0.17382
801.50	0.17151
801.75	0.16691
802.00	0.16320
802.25	0.16157
802.50	0.15781
802.75	0.15586
803.00	0.15130
803.25	0.14976
803.50	0.14676
803.75	0.14493
804.00	0.14122
804.25	0.13824
804.50	0.13661
804.75	0.13279
805.00	0.13075
805.25	0.12831
805.50	0.12544
805.75	0.12444
806.00	0.12002
806.25	0.11888
806.50	0.11590
806.75	0.11672
807.00	0.11283
807.25	0.11010
807.50	0.10611
807.75	0.10432
808.00	0.10384
808.25	0.10006
808.50	0.10004
808.75	0.096772
809.00	0.096758
809.25	0.093964
809.50	0.092065
809.75	0.089825
810.00	0.086997
810.25	0.087432
810.50	0.085834
810.75	0.084169
811.00	0.080425
811.25	0.079121
811.50	0.079255
811.75	0.077042
812.00	0.075069
812.25	0.072823
812.50	0.074013
812.75	0.071853
813.00	0.069527
813.25	0.070356
813.50	0.068845
813.75	0.067247
814.00	0.065823
814.25	0.065040
814.50	0.064078
814.75	0.064004
815.00	0.061751
815.25	0.059805
815.50	0.058863
815.75	0.058181
816.00	0.056984
816.25	0.056088
816.50	0.053567
816.75	0.054330
817.00	0.049248
817.25	0.050104
817.50	0.050224
817.75	0.049837
818.00	0.048720
818.25	0.047035
818.50	0.047470
818.75	0.044495
819.00	0.044642
819.25	0.043759
819.50	0.041854
819.75	0.041459
820.00	0.040724
820.25	0.041312
820.50	0.040343
820.75	0.038578
821.00	0.037254
821.25	0.035836
821.50	0.038444
821.75	0.035134
822.00	0.035275
822.25	0.033450
822.50	0.033450
822.75	0.033456
823.00	0.030153
823.25	0.030575
823.50	0.029665
823.75	0.029144
824.00	0.030006
824.25	0.029211
824.50	0.027171
824.75	0.028502
825.00	0.025366
825.25	0.027472
825.50	0.026550
825.75	0.025319
826.00	0.026583
826.25	0.022371
826.50	0.025099
826.75	0.023427
827.00	0.022598
827.25	0.021281
827.50	0.022291
827.75	0.020071
828.00	0.020713
828.25	0.021816
828.50	0.019396
828.75	0.018547
829.00	0.021522
829.25	0.018527
829.50	0.018787
829.75	0.017357
830.00	0.018293
830.25	0.017450
830.50	0.018460
830.75	0.017637
831.00	0.016100
831.25	0.015698
831.50	0.014635
831.75	0.015618
832.00	0.015605
832.25	0.016929
832.50	0.013780
832.75	0.014783
833.00	0.013706
833.25	0.014722
833.50	0.013251
833.75	0.013191
834.00	0.013084
834.25	0.011079
834.50	0.013840
834.75	0.012783
835.00	0.013352
835.25	0.013472
835.50	0.012068
835.75	0.011346
836.00	0.011473
836.25	0.0090326
836.50	0.011941
836.75	0.010517
837.00	0.013325
837.25	0.0098884
837.50	0.010437
837.75	0.011132
838.00	0.010236
838.25	0.010751
838.50	0.0099887
838.75	0.0096210
839.00	0.0082972
839.25	0.011814
839.50	0.0071339
839.75	0.0082103
840.00	0.0090126
840.25	0.0073211
840.50	0.0093001
840.75	0.0064720
841.00	0.0075751
841.25	0.0078292
841.50	0.0084175
841.75	0.0059438
842.00	0.0080030
842.25	0.0077958
842.50	0.0052952
842.75	0.0077356
843.00	0.0080699
843.25	0.0054958
843.50	0.0067528
843.75	0.0053086
844.00	0.0058903
844.25	0.0077891
844.50	0.0064385
844.75	0.0072542
845.00	0.0075751
845.25	0.0068597
845.50	0.0046801
845.75	0.0052417
846.00	0.0065990
846.25	0.0055760
846.50	0.0038310
846.75	0.0052484
847.00	0.0099486
847.25	0.0088588
847.50	0.0070001
847.75	0.0059571
848.00	0.0067126
848.25	0.0041185
848.50	0.0050545
848.75	0.0022130
849.00	0.0071272
849.25	0.0071740
849.50	0.0079963
849.75	0.0059371
850.00	0.0049810
850.25	0.0051949
850.50	0.0044194
850.75	0.0076019
851.00	0.0051147
851.25	0.0054356
851.50	0.0058702
851.75	0.0082170
852.00	0.0072275
852.25	0.0060173
852.50	0.0048941
852.75	0.0068196
853.00	0.0023334
853.25	0.0087385
853.50	0.0045932
853.75	0.0055694
854.00	0.0031691
854.25	0.0082437
854.50	0.0041051
854.75	0.0076620
855.00	0.00056162
855.25	0.0042522
855.50	0.0058903
855.75	0.0040784
856.00	0.0056763
856.25	0.0024002
856.50	0.0065789
856.75	0.0067193
857.00	0.0083373
857.25	0.0063850
857.50	0.0038912
857.75	0.0063449
858.00	0.0010296
858.25	0.0064786
858.50	0.0048339
858.75	0.0048406
859.00	0.0029151
859.25	0.0030087
859.50	0.0041854
859.75	0.0063315
860.00	0.00069533
860.25	0.0045665
860.50	0.0051481
860.75	0.0041519
861.00	0.0045397
861.25	0.0011366
861.50	0.0070937
861.75	0.00084242
862.00	0.0061443
862.25	0.0054490
862.50	0.0085646
862.75	0.0072609
863.00	0.0053755
863.25	0.0028816
863.50	0.0043525
863.75	0.0049275
864.00	0.00044127
864.25	0.0054089
864.50	0.0060374
864.75	0.0070403
865.00	0.00044127
865.25	0.0018119
865.50	0.0073745
865.75	0.0025072
866.00	0.0061778
866.25	0.0047871
866.50	0.0031557
866.75	0.0011232
867.00	0.0057231
867.25	0.0055827
867.50	0.0038711
867.75	0.0025406
868.00	0.0017183
868.25	0.0011633
868.50	-0.0019924
868.75	0.0071472
869.00	0.00014040
869.25	0.0091998
869.50	0.0035168
869.75	0.0031290
870.00	0.0040450
870.25	0.0011700
870.50	0.0049008
870.75	-4.6801e-05
871.00	0.0034232
871.25	0.0066993
871.50	0.00082905
871.75	0.0050144
872.00	0.0084376
872.25	0.0045531
872.50	0.0096210
872.75	0.0023601
873.00	0.0084911
873.25	-0.0010831
873.50	0.0039046
873.75	0.0010296
874.00	0.0031691
874.25	-0.0012770
874.50	0.0028214
874.75	-0.00080899
875.00	0.0051013
875.25	0.010350
875.50	0.0056964
875.75	0.0059103
876.00	0.0067260
876.25	0.0013439
876.50	0.0030287
876.75	0.0022465
877.00	0.0026209
877.25	0.0066391
877.50	0.0087318
877.75	0.0019122
878.00	0.0022665
878.25	0.0033028
878.50	0.0068932
878.75	0.0028482
879.00	0.0044194
879.25	0.0056830
879.50	0.0024069
879.75	0.011420
880.00	-0.00073545
880.25	0.0047537
880.50	0.0019389
880.75	0.0036639
881.00	0.0017316
881.25	0.00054824
881.50	0.0023869
881.75	0.0048540
882.00	0.0064251
882.25	0.00012035
882.50	0.0067862
882.75	0.0077490
883.00	0.0052016
883.25	0.0089658
883.50	-0.0013572
883.75	0.00068865
884.00	0.0031023
884.25	-0.00092265
884.50	0.0072809
884.75	0.0066592
885.00	0.0068129
885.25	0.0071339
885.50	0.0059638
885.75	0.0065121
886.00	0.0099018
886.25	0.0022130
886.50	0.0019055
886.75	-0.00048807
887.00	0.0051080
887.25	0.0045732
887.50	0.013506
887.75	0.0012569
888.00	0.0055426
888.25	0.0060240
888.50	0.0064653
888.75	0.0086516
889.00	0.00019389
889.25	0.0033964
889.50	0.013953
889.75	-0.0021127
890.00	0.0093001
890.25	0.014963
890.50	0.023307
890.75	-0.0030287
891.00	0.0032761
891.25	0.012249
891.50	0.011740
891.75	0.013378
892.00	-0.0017450
892.25	0.011279
892.50	0.012088
892.75	0.011867
893.00	-0.00090928
893.25	0.018159
893.50	-0.00057499
893.75	-0.0037107
894.00	0.0096210
894.25	0.0057766
894.50	0.0071138
894.75	0.0039848
895.00	0.0021236
895.25	0.0030916
895.50	0.013352
895.75	0.016788
896.00	0.0059371
896.25	0.018112
896.50	0.0025005
896.75	0.0060441
897.00	0.012021
897.25	-0.0011433
897.50	0.0099085
897.75	0.0088521
898.00	0.032768
898.25	0.015879
898.50	0.0083239
898.75	0.0019122
899.00	0.014321
899.25	0.0082170
899.50	0.011493
899.75	0.013980
900.00	0.010738
