Wavelength (nm)	K17 abs N
220.00	0.041974
220.25	0.042672
220.50	0.042571
220.75	0.040613
221.00	0.042142
221.25	0.039765
221.50	0.037790
221.75	0.038244
222.00	0.037622
222.25	0.036085
222.50	0.037480
222.75	0.035934
223.00	0.031548
223.25	0.031464
223.50	0.031238
223.75	0.031632
224.00	0.028574
224.25	0.027953
224.50	0.027264
224.75	0.024869
225.00	0.026088
225.25	0.024517
225.50	0.022584
225.75	0.020207
226.00	0.018980
226.25	0.020652
226.50	0.021038
226.75	0.018140
227.00	0.018602
227.25	0.016292
227.50	0.017762
227.75	0.014796
228.00	0.015687
228.25	0.015300
228.50	0.014855
228.75	0.015443
229.00	0.014023
229.25	0.013444
229.50	0.015082
229.75	0.014553
230.00	0.013755
230.25	0.015250
230.50	0.014149
230.75	0.014553
231.00	0.013200
231.25	0.014309
231.50	0.016233
231.75	0.013788
232.00	0.014242
232.25	0.017199
232.50	0.015233
232.75	0.016460
233.00	0.016577
233.25	0.017224
233.50	0.017947
233.75	0.018022
234.00	0.017846
234.25	0.020400
234.50	0.018888
234.75	0.018854
235.00	0.018031
235.25	0.018274
235.50	0.020770
235.75	0.021341
236.00	0.021332
236.25	0.023340
236.50	0.022341
236.75	0.022803
237.00	0.023475
237.25	0.023298
237.50	0.022584
237.75	0.024004
238.00	0.023735
238.25	0.026827
238.50	0.024113
238.75	0.024374
239.00	0.025147
239.25	0.025399
239.50	0.026650
239.75	0.025701
240.00	0.028457
240.25	0.028121
240.50	0.028011
240.75	0.028633
241.00	0.029381
241.25	0.028868
241.50	0.030616
241.75	0.031053
242.00	0.032489
242.25	0.031632
242.50	0.034321
242.75	0.034875
243.00	0.035497
243.25	0.036093
243.50	0.036724
243.75	0.036833
244.00	0.037824
244.25	0.038219
244.50	0.037026
244.75	0.039924
245.00	0.041227
245.25	0.041924
245.50	0.041899
245.75	0.040941
246.00	0.042890
246.25	0.043470
246.50	0.044780
246.75	0.044427
247.00	0.045494
247.25	0.046385
247.50	0.046629
247.75	0.048544
248.00	0.048569
248.25	0.048737
248.50	0.050611
248.75	0.051644
249.00	0.050527
249.25	0.050905
249.50	0.051905
249.75	0.053064
250.00	0.053350
250.25	0.051703
250.50	0.053014
250.75	0.051569
251.00	0.053593
251.25	0.052005
251.50	0.053022
251.75	0.053896
252.00	0.053014
252.25	0.054324
252.50	0.053467
252.75	0.051644
253.00	0.053702
253.25	0.053232
253.50	0.054433
253.75	0.053400
254.00	0.054509
254.25	0.054517
254.50	0.052913
254.75	0.054030
255.00	0.053812
255.25	0.053786
255.50	0.053072
255.75	0.053366
256.00	0.053005
256.25	0.053274
256.50	0.050342
256.75	0.051358
257.00	0.053366
257.25	0.051090
257.50	0.051073
257.75	0.050090
258.00	0.049905
258.25	0.049157
258.50	0.050258
258.75	0.050056
259.00	0.049703
259.25	0.049947
259.50	0.050031
259.75	0.049250
260.00	0.049325
260.25	0.049871
260.50	0.050527
260.75	0.049384
261.00	0.049141
261.25	0.049048
261.50	0.048494
261.75	0.048065
262.00	0.046914
262.25	0.047670
262.50	0.046393
262.75	0.046990
263.00	0.047082
263.25	0.045494
263.50	0.045763
263.75	0.044083
264.00	0.043276
264.25	0.044133
264.50	0.044848
264.75	0.044688
265.00	0.043293
265.25	0.043470
265.50	0.040076
265.75	0.039462
266.00	0.040437
266.25	0.040118
266.50	0.039076
266.75	0.038941
267.00	0.037522
267.25	0.036757
267.50	0.036648
267.75	0.035472
268.00	0.034077
268.25	0.033279
268.50	0.033497
268.75	0.032397
269.00	0.031666
269.25	0.030549
269.50	0.030733
269.75	0.029154
270.00	0.029616
270.25	0.028675
270.50	0.027852
270.75	0.028205
271.00	0.025651
271.25	0.026029
271.50	0.024811
271.75	0.023357
272.00	0.024432
272.25	0.023122
272.50	0.022702
272.75	0.021702
273.00	0.022240
273.25	0.021744
273.50	0.021156
273.75	0.019871
274.00	0.019417
274.25	0.019820
274.50	0.019375
274.75	0.019526
275.00	0.019106
275.25	0.017165
275.50	0.018921
275.75	0.017249
276.00	0.017123
276.25	0.017863
276.50	0.018627
276.75	0.017485
277.00	0.017065
277.25	0.015813
277.50	0.016754
277.75	0.015830
278.00	0.015914
278.25	0.014964
278.50	0.015317
278.75	0.015435
279.00	0.015594
279.25	0.016527
279.50	0.013973
279.75	0.016208
280.00	0.016737
280.25	0.016132
280.50	0.015813
280.75	0.015300
281.00	0.015754
281.25	0.016098
281.50	0.015662
281.75	0.015418
282.00	0.015510
282.25	0.016082
282.50	0.016535
282.75	0.016233
283.00	0.014065
283.25	0.016325
283.50	0.017745
283.75	0.017627
284.00	0.017703
284.25	0.016577
284.50	0.015561
284.75	0.016997
285.00	0.016124
285.25	0.017165
285.50	0.016989
285.75	0.016905
286.00	0.018476
286.25	0.017627
286.50	0.018871
286.75	0.019215
287.00	0.018694
287.25	0.018358
287.50	0.019501
287.75	0.019476
288.00	0.019073
288.25	0.019837
288.50	0.018997
288.75	0.018694
289.00	0.019652
289.25	0.019694
289.50	0.018686
289.75	0.021047
290.00	0.020971
290.25	0.019837
290.50	0.022559
290.75	0.020391
291.00	0.019686
291.25	0.021349
291.50	0.021979
291.75	0.020828
292.00	0.022047
292.25	0.022903
292.50	0.023256
292.75	0.024340
293.00	0.023223
293.25	0.023231
293.50	0.024273
293.75	0.024256
294.00	0.025105
294.25	0.024046
294.50	0.024441
294.75	0.025600
295.00	0.024853
295.25	0.024424
295.50	0.023870
295.75	0.026802
296.00	0.026197
296.25	0.025903
296.50	0.026323
296.75	0.026659
297.00	0.028112
297.25	0.027449
297.50	0.028591
297.75	0.027180
298.00	0.028003
298.25	0.028171
298.50	0.026718
298.75	0.027911
299.00	0.028482
299.25	0.030868
299.50	0.029700
299.75	0.029087
300.00	0.028247
300.25	0.029515
300.50	0.030112
300.75	0.030389
301.00	0.031120
301.25	0.030641
301.50	0.029877
301.75	0.030498
302.00	0.029431
302.25	0.031481
302.50	0.031481
302.75	0.031137
303.00	0.031842
303.25	0.031406
303.50	0.029708
303.75	0.031674
304.00	0.031926
304.25	0.031422
304.50	0.032120
304.75	0.033850
305.00	0.032657
305.25	0.032136
305.50	0.033086
305.75	0.030935
306.00	0.031044
306.25	0.032565
306.50	0.034136
306.75	0.032590
307.00	0.032876
307.25	0.031515
307.50	0.031842
307.75	0.033934
308.00	0.032422
308.25	0.033766
308.50	0.032237
308.75	0.032447
309.00	0.031061
309.25	0.031490
309.50	0.032204
309.75	0.031532
310.00	0.033665
310.25	0.034766
310.50	0.030784
310.75	0.031095
311.00	0.041865
311.25	0.029414
311.50	0.028297
311.75	0.030137
312.00	0.029767
312.25	0.024727
312.50	0.036833
312.75	0.036682
313.00	0.036219
313.25	0.031448
313.50	0.032346
313.75	0.033371
314.00	0.028079
314.25	0.033497
314.50	0.033976
314.75	0.033766
315.00	0.026701
315.25	0.034035
315.50	0.030061
315.75	0.030187
316.00	0.025096
316.25	0.028339
316.50	0.028070
316.75	0.030943
317.00	0.027365
317.25	0.027003
317.50	0.030414
317.75	0.027205
318.00	0.029549
318.25	0.021979
318.50	0.023794
318.75	0.027768
319.00	0.027247
319.25	0.029834
319.50	0.028726
319.75	0.028600
320.00	0.026667
320.25	0.021694
320.50	0.025105
320.75	0.025836
321.00	0.025281
321.25	0.023660
321.50	0.023433
321.75	0.022391
322.00	0.025155
322.25	0.020156
322.50	0.019451
322.75	0.021232
323.00	0.021752
323.25	0.021912
323.50	0.023483
323.75	0.022307
324.00	0.021223
324.25	0.021223
324.50	0.019283
324.75	0.021114
325.00	0.020442
325.25	0.025096
325.50	0.022399
325.75	0.016871
326.00	0.017350
326.25	0.017720
326.50	0.014645
326.75	0.019753
327.00	0.022668
327.25	0.020148
327.50	0.020921
327.75	0.012646
328.00	0.018728
328.25	0.020770
328.50	0.017854
328.75	0.016939
329.00	0.016493
329.25	0.017006
329.50	0.015746
329.75	0.010100
330.00	0.014855
330.25	0.016199
330.50	0.015284
330.75	0.019350
331.00	0.016006
331.25	0.015208
331.50	0.0086634
331.75	0.011923
332.00	0.017510
332.25	0.017140
332.50	0.013385
332.75	0.013553
333.00	0.015653
333.25	0.010545
333.50	0.0089910
333.75	0.016082
334.00	0.011747
334.25	0.011839
334.50	0.012217
334.75	0.013049
335.00	0.010705
335.25	0.0087726
335.50	0.0084785
335.75	0.0099488
336.00	0.010058
336.25	0.0097723
336.50	0.010461
336.75	0.0073528
337.00	0.012041
337.25	0.013696
337.50	0.011033
337.75	0.012293
338.00	0.011117
338.25	0.0076216
338.50	0.010545
338.75	0.012889
339.00	0.0056305
339.25	0.012520
339.50	0.0091506
339.75	0.0075544
340.00	0.0074452
340.25	0.011856
340.50	0.0064874
340.75	0.013452
341.00	0.0094615
341.25	0.0082601
341.50	0.013158
341.75	0.0082517
342.00	0.0099067
342.25	0.010050
342.50	0.0064454
342.75	0.0062186
343.00	0.011495
343.25	0.013326
343.50	0.0068319
343.75	0.0077140
344.00	0.010293
344.25	0.0096463
344.50	0.0074704
344.75	0.0066051
345.00	0.012494
345.25	0.0060758
345.50	0.0083945
345.75	0.010528
346.00	0.0096715
346.25	0.0080921
346.50	0.014023
346.75	0.0048240
347.00	0.0095959
347.25	0.0090582
347.50	0.0075208
347.75	0.0084785
348.00	0.0089490
348.25	0.0093271
348.50	0.0068151
348.75	0.010822
349.00	0.0049164
349.25	0.0079577
349.50	0.014175
349.75	0.0073948
350.00	0.0080333
350.25	0.0080652
350.50	0.0032664
350.75	0.0061043
351.00	0.0076737
351.25	0.0071259
351.50	0.0061161
351.75	0.0054255
352.00	0.0080618
352.25	0.0080854
352.50	0.0067983
352.75	0.0047803
353.00	0.0088196
353.25	0.0051718
353.50	0.0040024
353.75	0.0069495
354.00	0.0084096
354.25	0.0075678
354.50	0.0067512
354.75	0.0054894
355.00	0.0066975
355.25	0.0062253
355.50	0.0060556
355.75	0.0036428
356.00	0.0029690
356.25	0.0069075
356.50	0.0061413
356.75	0.0058120
357.00	0.0066924
357.25	0.0079173
357.50	0.0057145
357.75	0.0049819
358.00	0.0045098
358.25	0.0021726
358.50	0.0039687
358.75	0.0051768
359.00	0.0054692
359.25	0.0053583
359.50	0.0035756
359.75	0.0071360
360.00	0.0065967
360.25	0.0072839
360.50	0.0059380
360.75	0.0024246
361.00	0.0042292
361.25	0.0041435
361.50	0.0035957
361.75	0.0044510
362.00	0.0058859
362.25	0.0037839
362.50	0.0077224
362.75	0.0045871
363.00	0.0052743
363.25	0.0051718
363.50	0.0069344
363.75	0.0025725
364.00	0.0058221
364.25	0.0059296
364.50	0.0051886
364.75	0.0041116
365.00	0.0061010
365.25	0.0055448
365.50	0.0073830
365.75	0.0060707
366.00	0.0058926
366.25	0.0043619
366.50	0.0048559
366.75	0.0047702
367.00	0.0059447
367.25	0.0062035
367.50	0.0051600
367.75	0.0047803
368.00	0.0040981
368.25	0.0049366
368.50	0.0039940
368.75	0.0063194
369.00	0.0045955
369.25	0.0058792
369.50	0.0073309
369.75	0.0043384
370.00	0.0030765
370.25	0.0055784
370.50	0.0037453
370.75	0.0044325
371.00	0.0060943
371.25	0.0030597
371.50	0.0092498
371.75	0.0036613
372.00	0.0049114
372.25	0.0042544
372.50	0.0026565
372.75	0.0051332
373.00	0.0038797
373.25	0.0073729
373.50	0.0037083
373.75	0.0081341
374.00	0.0076787
374.25	0.0025607
374.50	0.0043737
374.75	0.0051365
375.00	0.0065462
375.25	0.0053432
375.50	0.0047702
375.75	0.0043569
376.00	0.0058506
376.25	0.0057817
376.50	0.0052004
376.75	0.0064505
377.00	0.0060287
377.25	0.0050945
377.50	0.0045384
377.75	0.0053096
378.00	0.0036529
378.25	0.0037184
378.50	0.0075225
378.75	0.0038494
379.00	0.0062589
379.25	0.0064925
379.50	0.0054238
379.75	0.0057162
380.00	0.0026649
380.25	0.0055280
380.50	0.0053751
380.75	0.0064488
381.00	0.0067664
381.25	0.0055213
381.50	0.0083844
381.75	0.0061732
382.00	0.0043569
382.25	0.0045820
382.50	0.0040679
382.75	0.0034361
383.00	0.0027035
383.25	0.0064572
383.50	0.0065647
383.75	0.0035554
384.00	0.0067966
384.25	0.0072150
384.50	0.0034832
384.75	0.0086482
385.00	0.0055801
385.25	0.0043938
385.50	0.0048962
385.75	0.0072721
386.00	0.0061615
386.25	0.0066471
386.50	0.0078720
386.75	0.0059044
387.00	0.0076502
387.25	0.0057162
387.50	0.0054205
387.75	0.0068050
388.00	0.0087188
388.25	0.0061716
388.50	0.0084130
388.75	0.0057229
389.00	0.0081996
389.25	0.0050391
389.50	0.0083223
389.75	0.0060943
390.00	0.0074620
390.25	0.0050239
390.50	0.0045098
390.75	0.0066504
391.00	0.0071192
391.25	0.0067479
391.50	0.0067126
391.75	0.0044594
392.00	0.0077846
392.25	0.0074133
392.50	0.0060170
392.75	0.0087121
393.00	0.0077863
393.25	0.0082047
393.50	0.0077661
393.75	0.0058321
394.00	0.0082080
394.25	0.0085424
394.50	0.0076166
394.75	0.0075477
395.00	0.0059414
395.25	0.0069982
395.50	0.0096261
395.75	0.0081879
396.00	0.0093119
396.25	0.0078400
396.50	0.0070318
396.75	0.0056019
397.00	0.0090448
397.25	0.0082282
397.50	0.0062522
397.75	0.0054440
398.00	0.0092733
398.25	0.0074569
398.50	0.0088751
398.75	0.0084197
399.00	0.0076619
399.25	0.0059548
399.50	0.0092632
399.75	0.0079341
400.00	0.0074704
400.25	0.0076871
400.50	0.0077191
400.75	0.0084567
401.00	0.0071024
401.25	0.0089994
401.50	0.0047887
401.75	0.0070050
402.00	0.0078854
402.25	0.0097488
402.50	0.0081257
402.75	0.0084433
403.00	0.0078115
403.25	0.010339
403.50	0.0073124
403.75	0.0064118
404.00	0.0082920
404.25	0.0074754
404.50	0.0075914
404.75	0.0080013
405.00	0.0074116
405.25	0.0058557
405.50	0.0079543
405.75	0.0094060
406.00	0.0081358
406.25	0.010159
406.50	0.0093590
406.75	0.0078787
407.00	0.0082047
407.25	0.0096396
407.50	0.0084533
407.75	0.0084517
408.00	0.0074838
408.25	0.0081458
408.50	0.0088415
408.75	0.0065799
409.00	0.0072167
409.25	0.010517
409.50	0.0085827
409.75	0.0072452
410.00	0.010461
410.25	0.0095522
410.50	0.0074838
410.75	0.0085995
411.00	0.0097488
411.25	0.011150
411.50	0.010300
411.75	0.0074670
412.00	0.0079274
412.25	0.010034
412.50	0.0097135
412.75	0.010300
413.00	0.0082903
413.25	0.0085155
413.50	0.0095388
413.75	0.010083
414.00	0.0097538
414.25	0.010449
414.50	0.010271
414.75	0.0096816
415.00	0.010705
415.25	0.0099051
415.50	0.0085760
415.75	0.0092296
416.00	0.0096312
416.25	0.011343
416.50	0.010031
416.75	0.0098782
417.00	0.010078
417.25	0.0090851
417.50	0.011999
417.75	0.011442
418.00	0.010886
418.25	0.011582
418.50	0.010522
418.75	0.011847
419.00	0.011728
419.25	0.010382
419.50	0.010817
419.75	0.011849
420.00	0.013015
420.25	0.010014
420.50	0.0099958
420.75	0.010717
421.00	0.012588
421.25	0.0097219
421.50	0.010401
421.75	0.011390
422.00	0.011658
422.25	0.011127
422.50	0.011478
422.75	0.012703
423.00	0.010928
423.25	0.012993
423.50	0.012622
423.75	0.012536
424.00	0.013417
424.25	0.014054
424.50	0.012615
424.75	0.011891
425.00	0.013032
425.25	0.011123
425.50	0.012306
425.75	0.012641
426.00	0.011421
426.25	0.012738
426.50	0.011888
426.75	0.012953
427.00	0.012792
427.25	0.013025
427.50	0.012352
427.75	0.014358
428.00	0.013045
428.25	0.013976
428.50	0.011925
428.75	0.013418
429.00	0.012644
429.25	0.013381
429.50	0.013447
429.75	0.013849
430.00	0.013242
430.25	0.014114
430.50	0.014188
430.75	0.013388
431.00	0.014672
431.25	0.014872
431.50	0.013980
431.75	0.015759
432.00	0.016001
432.25	0.013807
432.50	0.014998
432.75	0.018138
433.00	0.014608
433.25	0.016102
433.50	0.013529
433.75	0.015494
434.00	0.016844
434.25	0.015683
434.50	0.015808
434.75	0.017864
435.00	0.014620
435.25	0.018340
435.50	0.016381
435.75	0.016816
436.00	0.016377
436.25	0.018291
436.50	0.016156
436.75	0.018187
437.00	0.016429
437.25	0.018570
437.50	0.017871
437.75	0.018844
438.00	0.020237
438.25	0.019042
438.50	0.019015
438.75	0.017350
439.00	0.018659
439.25	0.019262
439.50	0.021067
439.75	0.019511
440.00	0.021181
440.25	0.019861
440.50	0.018187
440.75	0.021731
441.00	0.020334
441.25	0.019148
441.50	0.021616
441.75	0.019447
442.00	0.021672
442.25	0.020914
442.50	0.022584
442.75	0.020138
443.00	0.022791
443.25	0.021907
443.50	0.022048
443.75	0.021921
444.00	0.025044
444.25	0.023866
444.50	0.022504
444.75	0.022998
445.00	0.021862
445.25	0.023414
445.50	0.024270
445.75	0.023537
446.00	0.023258
446.25	0.024903
446.50	0.025792
446.75	0.025958
447.00	0.025276
447.25	0.025014
447.50	0.026466
447.75	0.027464
448.00	0.025420
448.25	0.024285
448.50	0.026207
448.75	0.027566
449.00	0.025632
449.25	0.027218
449.50	0.026797
449.75	0.027349
450.00	0.029364
450.25	0.028858
450.50	0.027815
450.75	0.028502
451.00	0.029492
451.25	0.027482
451.50	0.029152
451.75	0.027042
452.00	0.032106
452.25	0.030517
452.50	0.029272
452.75	0.031379
453.00	0.031024
453.25	0.029015
453.50	0.031315
453.75	0.030238
454.00	0.031605
454.25	0.031041
454.50	0.032736
454.75	0.030231
455.00	0.032607
455.25	0.032328
455.50	0.033015
455.75	0.032669
456.00	0.033281
456.25	0.034388
456.50	0.033403
456.75	0.035074
457.00	0.034862
457.25	0.035776
457.50	0.034884
457.75	0.034714
458.00	0.035645
458.25	0.035904
458.50	0.037649
458.75	0.036597
459.00	0.038747
459.25	0.038316
459.50	0.038668
459.75	0.039691
460.00	0.039345
460.25	0.040225
460.50	0.039493
460.75	0.039407
461.00	0.040145
461.25	0.040311
461.50	0.040990
461.75	0.042593
462.00	0.040407
462.25	0.042018
462.50	0.043134
462.75	0.041359
463.00	0.043996
463.25	0.045237
463.50	0.045908
463.75	0.044209
464.00	0.046677
464.25	0.046062
464.50	0.046271
464.75	0.047260
465.00	0.047670
465.25	0.048996
465.50	0.047919
465.75	0.048295
466.00	0.050621
466.25	0.049955
466.50	0.050382
466.75	0.051464
467.00	0.053336
467.25	0.054217
467.50	0.053190
467.75	0.053247
468.00	0.052590
468.25	0.055386
468.50	0.054502
468.75	0.054475
469.00	0.055633
469.25	0.056799
469.50	0.057965
469.75	0.057913
470.00	0.057525
470.25	0.057271
470.50	0.058832
470.75	0.059301
471.00	0.060055
471.25	0.063145
471.50	0.061640
471.75	0.062352
472.00	0.062897
472.25	0.063769
472.50	0.063759
472.75	0.064631
473.00	0.065763
473.25	0.065972
473.50	0.068028
473.75	0.068850
474.00	0.068193
474.25	0.066645
474.50	0.070155
474.75	0.070280
475.00	0.071177
475.25	0.070377
475.50	0.074038
475.75	0.073356
476.00	0.073884
476.25	0.075159
476.50	0.076703
476.75	0.075576
477.00	0.076624
477.25	0.078219
477.50	0.078007
477.75	0.079509
478.00	0.079651
478.25	0.081186
478.50	0.082084
478.75	0.082451
479.00	0.082080
479.25	0.083918
479.50	0.084589
479.75	0.085074
480.00	0.085703
480.25	0.086776
480.50	0.084784
480.75	0.088311
481.00	0.088107
481.25	0.089702
481.50	0.090658
481.75	0.090463
482.00	0.090587
482.25	0.090930
482.50	0.092373
482.75	0.092876
483.00	0.094185
483.25	0.095401
483.50	0.095937
483.75	0.095490
484.00	0.097673
484.25	0.097898
484.50	0.098560
484.75	0.099020
485.00	0.10000
485.25	0.10074
485.50	0.099998
485.75	0.10295
486.00	0.10362
486.25	0.10230
486.50	0.10310
486.75	0.10431
487.00	0.10624
487.25	0.10507
487.50	0.10661
487.75	0.10906
488.00	0.10821
488.25	0.11074
488.50	0.11099
488.75	0.11230
489.00	0.11126
489.25	0.11361
489.50	0.11309
489.75	0.11257
490.00	0.11530
490.25	0.11612
490.50	0.11788
490.75	0.11766
491.00	0.11795
491.25	0.12055
491.50	0.12010
491.75	0.12227
492.00	0.12374
492.25	0.12385
492.50	0.12459
492.75	0.12572
493.00	0.12587
493.25	0.12915
493.50	0.12957
493.75	0.12829
494.00	0.13080
494.25	0.13157
494.50	0.13309
494.75	0.13538
495.00	0.13419
495.25	0.13544
495.50	0.13726
495.75	0.13863
496.00	0.14035
496.25	0.14095
496.50	0.14285
496.75	0.14447
497.00	0.14409
497.25	0.14546
497.50	0.14768
497.75	0.14740
498.00	0.14861
498.25	0.15146
498.50	0.15102
498.75	0.15508
499.00	0.15753
499.25	0.15762
499.50	0.16103
499.75	0.16221
500.00	0.16255
500.25	0.16548
500.50	0.16659
500.75	0.16808
501.00	0.16977
501.25	0.17308
501.50	0.17415
501.75	0.17484
502.00	0.17675
502.25	0.18049
502.50	0.18046
502.75	0.18589
503.00	0.18578
503.25	0.18905
503.50	0.18956
503.75	0.19057
504.00	0.19414
504.25	0.19680
504.50	0.19791
504.75	0.19898
505.00	0.20247
505.25	0.20505
505.50	0.20916
505.75	0.21059
506.00	0.21305
506.25	0.21518
506.50	0.21824
506.75	0.22101
507.00	0.22218
507.25	0.22424
507.50	0.22757
507.75	0.22812
508.00	0.23350
508.25	0.23381
508.50	0.23460
508.75	0.23787
509.00	0.24276
509.25	0.24490
509.50	0.24525
509.75	0.24892
510.00	0.25231
510.25	0.25315
510.50	0.25624
510.75	0.26071
511.00	0.26196
511.25	0.26708
511.50	0.26719
511.75	0.27026
512.00	0.27036
512.25	0.27591
512.50	0.27883
512.75	0.28087
513.00	0.28300
513.25	0.28539
513.50	0.28628
513.75	0.28761
514.00	0.28929
514.25	0.29653
514.50	0.29580
514.75	0.30009
515.00	0.30067
515.25	0.30596
515.50	0.30756
515.75	0.31305
516.00	0.31282
516.25	0.31602
516.50	0.31874
516.75	0.31964
517.00	0.32362
517.25	0.32496
517.50	0.32625
517.75	0.32880
518.00	0.33087
518.25	0.33468
518.50	0.33579
518.75	0.33768
519.00	0.33947
519.25	0.34053
519.50	0.34327
519.75	0.34390
520.00	0.34554
520.25	0.34798
520.50	0.35001
520.75	0.35029
521.00	0.35291
521.25	0.35579
521.50	0.35778
521.75	0.35569
522.00	0.35784
522.25	0.36328
522.50	0.36256
522.75	0.36444
523.00	0.36400
523.25	0.36714
523.50	0.36664
523.75	0.36958
524.00	0.36965
524.25	0.37395
524.50	0.37173
524.75	0.37264
525.00	0.37418
525.25	0.37643
525.50	0.37755
525.75	0.37820
526.00	0.37901
526.25	0.37884
526.50	0.38442
526.75	0.37978
527.00	0.38171
527.25	0.38250
527.50	0.38666
527.75	0.38584
528.00	0.38856
528.25	0.38839
528.50	0.38869
528.75	0.39098
529.00	0.39155
529.25	0.38951
529.50	0.39501
529.75	0.39566
530.00	0.39522
530.25	0.39408
530.50	0.39814
530.75	0.39711
531.00	0.39903
531.25	0.40191
531.50	0.40192
531.75	0.40428
532.00	0.40687
532.25	0.40867
532.50	0.40750
532.75	0.40851
533.00	0.41028
533.25	0.41180
533.50	0.41427
533.75	0.41499
534.00	0.41940
534.25	0.42182
534.50	0.42176
534.75	0.42312
535.00	0.42526
535.25	0.42561
535.50	0.42731
535.75	0.43237
536.00	0.43337
536.25	0.43666
536.50	0.43712
536.75	0.44081
537.00	0.44622
537.25	0.44729
537.50	0.45119
537.75	0.45468
538.00	0.45942
538.25	0.46185
538.50	0.46812
538.75	0.46961
539.00	0.47359
539.25	0.47858
539.50	0.48333
539.75	0.48794
540.00	0.49426
540.25	0.49450
540.50	0.50249
540.75	0.50796
541.00	0.51337
541.25	0.51907
541.50	0.52497
541.75	0.52861
542.00	0.53491
542.25	0.54071
542.50	0.54880
542.75	0.55568
543.00	0.56170
543.25	0.56908
543.50	0.57553
543.75	0.58333
544.00	0.58876
544.25	0.59655
544.50	0.60420
544.75	0.60930
545.00	0.61895
545.25	0.62681
545.50	0.63183
545.75	0.63975
546.00	0.64789
546.25	0.65788
546.50	0.66465
546.75	0.67298
547.00	0.68004
547.25	0.68948
547.50	0.69676
547.75	0.70536
548.00	0.71240
548.25	0.72303
548.50	0.73193
548.75	0.74110
549.00	0.74808
549.25	0.75744
549.50	0.76487
549.75	0.77307
550.00	0.78375
550.25	0.79044
550.50	0.79998
550.75	0.80917
551.00	0.81770
551.25	0.82640
551.50	0.83291
551.75	0.84352
552.00	0.84985
552.25	0.85721
552.50	0.86856
552.75	0.87511
553.00	0.88299
553.25	0.88745
553.50	0.90043
553.75	0.90533
554.00	0.91290
554.25	0.91852
554.50	0.92665
554.75	0.93131
555.00	0.94007
555.25	0.94786
555.50	0.95231
555.75	0.95756
556.00	0.96678
556.25	0.96986
556.50	0.97338
556.75	0.97882
557.00	0.98093
557.25	0.98222
557.50	0.98748
557.75	0.98935
558.00	0.99224
558.25	0.99412
558.50	0.99455
558.75	0.99783
559.00	0.99795
559.25	0.99797
559.50	1.0000
559.75	0.99984
560.00	0.99761
560.25	1.0000
560.50	0.99824
560.75	0.99699
561.00	0.99635
561.25	0.99028
561.50	0.99105
561.75	0.98790
562.00	0.98473
562.25	0.97874
562.50	0.97562
562.75	0.96907
563.00	0.96783
563.25	0.96201
563.50	0.95601
563.75	0.94850
564.00	0.94408
564.25	0.93837
564.50	0.93026
564.75	0.92652
565.00	0.91434
565.25	0.90660
565.50	0.89919
565.75	0.89097
566.00	0.88116
566.25	0.87478
566.50	0.86160
566.75	0.85562
567.00	0.84436
567.25	0.83471
567.50	0.82133
567.75	0.81356
568.00	0.80162
568.25	0.79204
568.50	0.77832
568.75	0.76745
569.00	0.75606
569.25	0.74636
569.50	0.73283
569.75	0.72224
570.00	0.70531
570.25	0.69375
570.50	0.68003
570.75	0.66869
571.00	0.65729
571.25	0.64392
571.50	0.62986
571.75	0.61769
572.00	0.60614
572.25	0.59552
572.50	0.57817
572.75	0.56863
573.00	0.55272
573.25	0.54415
573.50	0.53321
573.75	0.52563
574.00	0.51407
574.25	0.50297
574.50	0.49317
574.75	0.48299
575.00	0.47076
575.25	0.45820
575.50	0.44644
575.75	0.43180
576.00	0.42188
576.25	0.40788
576.50	0.40217
576.75	0.38743
577.00	0.37639
577.25	0.36471
577.50	0.35516
577.75	0.34564
578.00	0.33371
578.25	0.32406
578.50	0.31473
578.75	0.30318
579.00	0.29336
579.25	0.28546
579.50	0.27605
579.75	0.26593
580.00	0.25744
580.25	0.24940
580.50	0.23981
580.75	0.23104
581.00	0.22195
581.25	0.21577
581.50	0.20673
581.75	0.20134
582.00	0.19494
582.25	0.18758
582.50	0.17985
582.75	0.17483
583.00	0.16730
583.25	0.16046
583.50	0.15561
583.75	0.14898
584.00	0.14354
584.25	0.13934
584.50	0.13255
584.75	0.13031
585.00	0.12304
585.25	0.11845
585.50	0.11568
585.75	0.11043
586.00	0.10749
586.25	0.10250
586.50	0.099412
586.75	0.095094
587.00	0.090633
587.25	0.088171
587.50	0.086491
587.75	0.080795
588.00	0.078661
588.25	0.076182
588.50	0.072553
588.75	0.071923
589.00	0.067647
589.25	0.064639
589.50	0.061262
589.75	0.058851
590.00	0.059985
590.25	0.052785
590.50	0.053869
590.75	0.051743
591.00	0.049702
591.25	0.047912
591.50	0.045762
591.75	0.044191
592.00	0.042897
592.25	0.040729
592.50	0.039293
592.75	0.038074
593.00	0.038234
593.25	0.036176
593.50	0.033235
593.75	0.034033
594.00	0.032286
594.25	0.032000
594.50	0.027674
594.75	0.029228
595.00	0.026699
595.25	0.028178
595.50	0.023406
595.75	0.025103
596.00	0.021121
596.25	0.022885
596.50	0.023431
596.75	0.022969
597.00	0.020843
597.25	0.018248
597.50	0.019751
597.75	0.021255
598.00	0.018424
598.25	0.019449
598.50	0.017223
598.75	0.017727
599.00	0.015282
599.25	0.014879
599.50	0.016004
599.75	0.015618
600.00	0.015769
600.25	0.014122
600.50	0.015853
600.75	0.013988
601.00	0.012753
601.25	0.012635
601.50	0.014534
601.75	0.012199
602.00	0.012148
602.25	0.013778
602.50	0.012358
602.75	0.011695
603.00	0.011594
603.25	0.011098
603.50	0.011787
603.75	0.010123
604.00	0.011216
604.25	0.010569
604.50	0.010199
604.75	0.0091153
605.00	0.011199
605.25	0.0096278
605.50	0.0086869
605.75	0.0095354
606.00	0.0075779
606.25	0.0089221
606.50	0.0085189
606.75	0.0080988
607.00	0.0084937
607.25	0.0081828
607.50	0.0087289
607.75	0.0055196
608.00	0.0070570
608.25	0.010569
608.50	0.0092582
608.75	0.0067882
609.00	0.0048643
609.25	0.0064270
609.50	0.0049735
609.75	0.0071747
610.00	0.0045367
610.25	0.0068890
610.50	0.0044863
610.75	0.0047131
611.00	0.0035033
611.25	0.0049147
611.50	0.0052424
611.75	0.0063093
612.00	0.0059229
612.25	0.0039066
612.50	0.0035369
612.75	0.0040578
613.00	0.0047887
613.25	0.0056960
613.50	0.0038394
613.75	0.0042594
614.00	0.0055616
614.25	0.0047971
614.50	0.0053684
614.75	0.0041166
615.00	0.0056288
615.25	0.0034277
615.50	0.0027640
615.75	0.0035453
616.00	0.0048391
616.25	0.0017055
616.50	0.0023355
616.75	0.0022347
617.00	0.0018567
617.25	0.0029152
617.50	0.0012350
617.75	0.0029824
618.00	0.00082332
618.25	0.0024532
618.50	0.0030160
618.75	0.0019827
619.00	0.0023523
619.25	0.0022683
619.50	0.0026968
619.75	0.0018987
620.00	0.0014198
620.25	0.0025120
620.50	0.00076451
620.75	0.0043014
621.00	0.0025708
621.25	0.00093254
621.50	0.0020247
621.75	0.0010418
622.00	0.0037974
622.25	0.0019995
622.50	0.0019575
622.75	0.00063849
623.00	0.0025120
623.25	0.0017979
623.50	0.0023523
623.75	0.0031001
624.00	0.0027808
624.25	0.0018987
624.50	0.00022683
624.75	0.0029236
625.00	0.0017055
625.25	0.0025036
625.50	0.0018903
625.75	0.0015122
626.00	0.0027220
626.25	0.0022851
626.50	0.0013358
626.75	0.0045115
627.00	0.0027052
627.25	0.0018147
627.50	0.00067210
627.75	0.0016634
628.00	0.0014198
628.25	0.00089893
628.50	0.0035621
628.75	0.00040326
629.00	0.00094094
629.25	-0.00036125
629.50	0.0020247
629.75	-0.00061329
630.00	0.0036881
630.25	0.0014702
630.50	0.0023692
630.75	0.00024364
631.00	-0.0010166
631.25	0.00092414
631.50	0.0015122
631.75	0.0019743
632.00	0.00071411
632.25	-0.00010922
632.50	0.0018651
632.75	-1.6802e-05
633.00	0.00099975
633.25	0.0014870
633.50	0.00021843
633.75	0.0013022
634.00	0.0016214
634.25	0.00051248
634.50	0.0010502
634.75	0.0023692
635.00	0.00021843
635.25	0.0026044
635.50	0.00019323
635.75	0.00025204
636.00	0.0024784
636.25	0.00057969
636.50	0.0014702
636.75	0.0016130
637.00	0.0011762
637.25	0.00032765
637.50	0.0019155
637.75	0.00056288
638.00	0.0011426
638.25	0.0025372
638.50	0.0023607
638.75	0.00079812
639.00	0.0018147
639.25	-7.5611e-05
639.50	0.0016550
639.75	0.0016298
640.00	0.0010166
640.25	-0.00010081
640.50	0.0021087
640.75	0.00078972
641.00	0.0028396
641.25	0.0013274
641.50	0.0012434
641.75	0.0027556
642.00	0.0032093
642.25	0.00032765
642.50	0.00052928
642.75	0.0032009
643.00	0.0026128
643.25	0.00083172
643.50	0.0016886
643.75	0.00069730
644.00	0.0018735
644.25	0.0012350
644.50	0.00088213
644.75	0.00018483
645.00	0.0025708
645.25	0.0015962
645.50	0.0025204
645.75	0.0027808
646.00	0.0023355
646.25	0.0015122
646.50	0.0019827
646.75	0.0022431
647.00	0.0016046
647.25	0.0031421
647.50	0.0034445
647.75	0.00083172
648.00	0.0023355
648.25	0.00066370
648.50	0.0020331
648.75	0.0020499
649.00	0.0019407
649.25	0.0040410
649.50	0.00083172
649.75	0.00030244
650.00	0.0023607
650.25	0.0022683
650.50	0.00068050
650.75	0.0016046
651.00	0.0013946
651.25	0.0032177
651.50	0.0026128
651.75	0.00087373
652.00	0.0011426
652.25	0.0029068
652.50	0.0022011
652.75	0.0010081
653.00	0.0015038
653.25	0.0013778
653.50	0.0046963
653.75	0.0015374
654.00	0.0011342
654.25	0.0015626
654.50	0.0030749
654.75	0.0022431
655.00	0.0014366
655.25	0.0023271
655.50	0.0017475
655.75	0.0029656
656.00	0.0023187
656.25	0.0015794
656.50	0.0019071
656.75	0.0024532
657.00	0.0012014
657.25	0.0024952
657.50	0.00074771
657.75	0.00063009
658.00	0.0038562
658.25	0.0026464
658.50	0.0031841
658.75	0.0021507
659.00	0.0017727
659.25	0.0021255
659.50	0.0010081
659.75	0.0031841
660.00	0.0017139
660.25	0.0014702
660.50	0.0015458
660.75	0.0015206
661.00	-6.7210e-05
661.25	0.0038898
661.50	0.0030749
661.75	0.0014282
662.00	0.00050407
662.25	0.0014702
662.50	0.0037722
662.75	0.0022851
663.00	0.0014870
663.25	0.0022095
663.50	0.0021507
663.75	0.0013190
664.00	0.00041166
664.25	0.0021255
664.50	0.0010334
664.75	0.0029740
665.00	-0.00031925
665.25	0.00071411
665.50	0.0028648
665.75	0.00084012
666.00	0.0016802
666.25	0.00042006
666.50	0.0039570
666.75	0.0018903
667.00	0.0027472
667.25	0.0013358
667.50	0.0026716
667.75	0.0025288
668.00	0.0018063
668.25	0.0033521
668.50	0.00099135
668.75	0.0016886
669.00	0.0024112
669.25	0.0041334
669.50	0.00024364
669.75	-0.00023523
670.00	0.0011510
670.25	0.0021591
670.50	-0.00031085
670.75	0.0010418
671.00	0.0013190
671.25	0.0019743
671.50	0.0014870
671.75	0.0012182
672.00	0.00059649
672.25	0.0018399
672.50	0.0023607
672.75	0.0018483
673.00	0.0013358
673.25	0.0023944
673.50	0.0023607
673.75	0.00074771
674.00	0.00083172
674.25	0.0038058
674.50	0.0022263
674.75	0.0014786
675.00	0.0018315
675.25	0.0023523
675.50	0.0022935
675.75	0.0024700
676.00	0.0040662
676.25	0.0012518
676.50	0.00073931
676.75	0.0028648
677.00	0.0038478
677.25	0.0015794
677.50	0.0015374
677.75	0.0014954
678.00	0.0016718
678.25	0.0022011
678.50	0.0022767
678.75	0.0017475
679.00	0.0017391
679.25	0.0023103
679.50	0.0017223
679.75	0.00077291
680.00	0.0011678
680.25	0.0011678
680.50	0.0026464
680.75	0.00042846
681.00	0.0034949
681.25	0.0017055
681.50	0.00034445
681.75	0.0021255
682.00	0.0012854
682.25	0.0016971
682.50	0.0014282
682.75	0.0018231
683.00	0.0019323
683.25	0.00057128
683.50	0.0020079
683.75	0.0018987
684.00	0.00041166
684.25	0.0015542
684.50	0.0018063
684.75	0.0010754
685.00	0.0031925
685.25	0.0030160
685.50	0.0021675
685.75	0.0012350
686.00	0.0011426
686.25	0.0026716
686.50	0.0014282
686.75	0.0033017
687.00	0.0017475
687.25	0.0010586
687.50	0.0021255
687.75	0.0011594
688.00	0.0015626
688.25	0.0038478
688.50	0.0023692
688.75	0.0016886
689.00	0.00099135
689.25	0.0036545
689.50	0.0011762
689.75	0.0019995
690.00	0.0016550
690.25	0.0010502
690.50	0.0019827
690.75	0.0026548
691.00	0.0028228
691.25	0.0049483
691.50	0.0033773
691.75	0.0034697
692.00	0.0023860
692.25	0.0038898
692.50	0.0014030
692.75	0.0017475
693.00	0.0019155
693.25	0.0029437
693.50	0.0013106
693.75	0.0021171
694.00	0.0011930
694.25	0.0028312
694.50	0.0034529
694.75	0.0025960
695.00	0.0022179
695.25	0.0020583
695.50	0.0021087
695.75	0.0039738
696.00	0.0019911
696.25	0.0017055
696.50	0.0027304
696.75	0.0024364
697.00	0.0041418
697.25	0.0033353
697.50	0.0028396
697.75	0.0022935
698.00	0.0030917
698.25	0.0033185
698.50	0.0017643
698.75	0.0025372
699.00	0.0028396
699.25	0.0024616
699.50	0.0026884
699.75	0.0030833
700.00	0.0016634
