Wavelength (nm)	L06 abs N
200.00	0.49630
201.00	0.55023
202.00	0.56209
203.00	0.56112
204.00	0.55489
205.00	0.54685
206.00	0.53870
207.00	0.52959
208.00	0.51781
209.00	0.50463
210.00	0.48880
211.00	0.47024
212.00	0.44844
213.00	0.42278
214.00	0.39403
215.00	0.36346
216.00	0.33214
217.00	0.30269
218.00	0.27517
219.00	0.25083
220.00	0.22919
221.00	0.21070
222.00	0.19468
223.00	0.18160
224.00	0.17052
225.00	0.16134
226.00	0.15392
227.00	0.14754
228.00	0.14227
229.00	0.13783
230.00	0.13412
231.00	0.13110
232.00	0.12859
233.00	0.12652
234.00	0.12488
235.00	0.12349
236.00	0.12242
237.00	0.12188
238.00	0.12180
239.00	0.12203
240.00	0.12252
241.00	0.12334
242.00	0.12416
243.00	0.12513
244.00	0.12629
245.00	0.12740
246.00	0.12843
247.00	0.12935
248.00	0.13022
249.00	0.13091
250.00	0.13149
251.00	0.13174
252.00	0.13183
253.00	0.13156
254.00	0.13085
255.00	0.12996
256.00	0.12874
257.00	0.12705
258.00	0.12478
259.00	0.12205
260.00	0.11873
261.00	0.11531
262.00	0.11181
263.00	0.10836
264.00	0.10495
265.00	0.10200
266.00	0.099308
267.00	0.097359
268.00	0.095978
269.00	0.094492
270.00	0.093320
271.00	0.092709
272.00	0.092512
273.00	0.092635
274.00	0.092772
275.00	0.093192
276.00	0.093830
277.00	0.094769
278.00	0.096278
279.00	0.097835
280.00	0.099745
281.00	0.10185
282.00	0.10436
283.00	0.10735
284.00	0.11035
285.00	0.11393
286.00	0.11778
287.00	0.12204
288.00	0.12701
289.00	0.13207
290.00	0.13753
291.00	0.14365
292.00	0.15003
293.00	0.15691
294.00	0.16417
295.00	0.17177
296.00	0.17984
297.00	0.18811
298.00	0.19699
299.00	0.20561
300.00	0.21441
301.00	0.22348
302.00	0.23193
303.00	0.24052
304.00	0.24802
305.00	0.25547
306.00	0.26267
307.00	0.26927
308.00	0.27472
309.00	0.27967
310.00	0.28409
311.00	0.28761
312.00	0.29030
313.00	0.29176
314.00	0.29123
315.00	0.28831
316.00	0.28207
317.00	0.27321
318.00	0.26082
319.00	0.24553
320.00	0.22791
321.00	0.20944
322.00	0.19042
323.00	0.17142
324.00	0.15413
325.00	0.13780
326.00	0.12314
327.00	0.11027
328.00	0.098359
329.00	0.088382
330.00	0.079363
331.00	0.071468
332.00	0.064408
333.00	0.058546
334.00	0.053048
335.00	0.048321
336.00	0.044092
337.00	0.040189
338.00	0.036729
339.00	0.033987
340.00	0.031419
341.00	0.029018
342.00	0.027085
343.00	0.025411
344.00	0.024328
345.00	0.023045
346.00	0.022310
347.00	0.022032
348.00	0.021864
349.00	0.021665
350.00	0.021522
351.00	0.021744
352.00	0.022365
353.00	0.022658
354.00	0.023348
355.00	0.024051
356.00	0.024607
357.00	0.025353
358.00	0.026110
359.00	0.027101
360.00	0.028007
361.00	0.028925
362.00	0.029909
363.00	0.030946
364.00	0.032215
365.00	0.033852
366.00	0.035103
367.00	0.036800
368.00	0.038389
369.00	0.040066
370.00	0.041544
371.00	0.043490
372.00	0.045666
373.00	0.047841
374.00	0.049679
375.00	0.052227
376.00	0.054420
377.00	0.056024
378.00	0.058742
379.00	0.061298
380.00	0.063731
381.00	0.066408
382.00	0.069133
383.00	0.072355
384.00	0.074816
385.00	0.077721
386.00	0.080996
387.00	0.084219
388.00	0.087430
389.00	0.090916
390.00	0.094463
391.00	0.097818
392.00	0.10127
393.00	0.10518
394.00	0.10844
395.00	0.11238
396.00	0.11624
397.00	0.11935
398.00	0.12317
399.00	0.12683
400.00	0.13027
401.00	0.13328
402.00	0.13693
403.00	0.14050
404.00	0.14357
405.00	0.14749
406.00	0.15070
407.00	0.15326
408.00	0.15647
409.00	0.15989
410.00	0.16272
411.00	0.16613
412.00	0.16868
413.00	0.17157
414.00	0.17380
415.00	0.17650
416.00	0.17828
417.00	0.18049
418.00	0.18216
419.00	0.18347
420.00	0.18469
421.00	0.18533
422.00	0.18541
423.00	0.18538
424.00	0.18447
425.00	0.18387
426.00	0.18217
427.00	0.17985
428.00	0.17740
429.00	0.17397
430.00	0.17035
431.00	0.16669
432.00	0.16261
433.00	0.15652
434.00	0.15114
435.00	0.14566
436.00	0.13974
437.00	0.13398
438.00	0.12743
439.00	0.12151
440.00	0.11474
441.00	0.10756
442.00	0.10186
443.00	0.095552
444.00	0.089475
445.00	0.083658
446.00	0.077472
447.00	0.072346
448.00	0.066907
449.00	0.061668
450.00	0.057196
451.00	0.052916
452.00	0.048770
453.00	0.044885
454.00	0.041104
455.00	0.037810
456.00	0.035258
457.00	0.032336
458.00	0.029761
459.00	0.027298
460.00	0.026108
461.00	0.024558
462.00	0.022586
463.00	0.020714
464.00	0.020077
465.00	0.018999
466.00	0.018464
467.00	0.017891
468.00	0.017588
469.00	0.016904
470.00	0.016581
471.00	0.016149
472.00	0.016552
473.00	0.016102
474.00	0.015489
475.00	0.016203
476.00	0.016175
477.00	0.016390
478.00	0.016561
479.00	0.017227
480.00	0.017191
481.00	0.018020
482.00	0.018932
483.00	0.018649
484.00	0.019408
485.00	0.020031
486.00	0.020029
487.00	0.020938
488.00	0.021774
489.00	0.022779
490.00	0.023212
491.00	0.024273
492.00	0.025212
493.00	0.025740
494.00	0.026843
495.00	0.027622
496.00	0.028325
497.00	0.028942
498.00	0.030356
499.00	0.031082
500.00	0.032311
501.00	0.033593
502.00	0.035227
503.00	0.035788
504.00	0.036533
505.00	0.037557
506.00	0.039440
507.00	0.040958
508.00	0.042509
509.00	0.044266
510.00	0.045501
511.00	0.047568
512.00	0.049120
513.00	0.050531
514.00	0.052069
515.00	0.054605
516.00	0.056569
517.00	0.057812
518.00	0.060139
519.00	0.062473
520.00	0.064317
521.00	0.067063
522.00	0.068750
523.00	0.071640
524.00	0.074366
525.00	0.076775
526.00	0.080158
527.00	0.081924
528.00	0.085772
529.00	0.088302
530.00	0.090469
531.00	0.094352
532.00	0.096645
533.00	0.099907
534.00	0.10340
535.00	0.10659
536.00	0.11009
537.00	0.11327
538.00	0.11719
539.00	0.12098
540.00	0.12502
541.00	0.12838
542.00	0.13202
543.00	0.13592
544.00	0.13969
545.00	0.14436
546.00	0.14858
547.00	0.15271
548.00	0.15707
549.00	0.16136
550.00	0.16679
551.00	0.17185
552.00	0.17709
553.00	0.18136
554.00	0.18699
555.00	0.19320
556.00	0.19963
557.00	0.20560
558.00	0.21222
559.00	0.21885
560.00	0.22598
561.00	0.23272
562.00	0.24018
563.00	0.24733
564.00	0.25554
565.00	0.26341
566.00	0.27245
567.00	0.28109
568.00	0.28906
569.00	0.29869
570.00	0.30757
571.00	0.31648
572.00	0.32515
573.00	0.33500
574.00	0.34458
575.00	0.35304
576.00	0.36265
577.00	0.37266
578.00	0.38113
579.00	0.38998
580.00	0.39946
581.00	0.40875
582.00	0.41695
583.00	0.42451
584.00	0.43435
585.00	0.44250
586.00	0.44983
587.00	0.45840
588.00	0.46629
589.00	0.47302
590.00	0.48106
591.00	0.48839
592.00	0.49704
593.00	0.50427
594.00	0.51171
595.00	0.51966
596.00	0.52659
597.00	0.53564
598.00	0.54406
599.00	0.55298
600.00	0.56226
601.00	0.57215
602.00	0.58198
603.00	0.59315
604.00	0.60343
605.00	0.61582
606.00	0.62851
607.00	0.64200
608.00	0.65635
609.00	0.67025
610.00	0.68563
611.00	0.70167
612.00	0.71833
613.00	0.73562
614.00	0.75246
615.00	0.77071
616.00	0.78815
617.00	0.80729
618.00	0.82565
619.00	0.84438
620.00	0.86315
621.00	0.87900
622.00	0.89956
623.00	0.91386
624.00	0.92987
625.00	0.94544
626.00	0.95743
627.00	0.96958
628.00	0.97932
629.00	0.98875
630.00	0.99434
631.00	0.99919
632.00	1.0000
633.00	0.99697
634.00	0.99266
635.00	0.98635
636.00	0.98044
637.00	0.97534
638.00	0.96971
639.00	0.95739
640.00	0.94778
641.00	0.93723
642.00	0.92016
643.00	0.89876
644.00	0.88078
645.00	0.85760
646.00	0.83599
647.00	0.81123
648.00	0.78295
649.00	0.76386
650.00	0.73531
651.00	0.70996
652.00	0.68337
653.00	0.65454
654.00	0.63047
655.00	0.59109
656.00	0.57255
657.00	0.57143
658.00	0.53835
659.00	0.50568
660.00	0.48123
661.00	0.45558
662.00	0.43142
663.00	0.40987
664.00	0.38706
665.00	0.36553
666.00	0.34693
667.00	0.32629
668.00	0.30768
669.00	0.28919
670.00	0.27307
671.00	0.25593
672.00	0.23960
673.00	0.22558
674.00	0.21097
675.00	0.19784
676.00	0.18522
677.00	0.17277
678.00	0.16126
679.00	0.15120
680.00	0.14128
681.00	0.13179
682.00	0.12250
683.00	0.11434
684.00	0.10618
685.00	0.099119
686.00	0.092360
687.00	0.086284
688.00	0.079804
689.00	0.073907
690.00	0.069156
691.00	0.063621
692.00	0.059447
693.00	0.055200
694.00	0.051424
695.00	0.047710
696.00	0.044098
697.00	0.040820
698.00	0.038043
699.00	0.035334
700.00	0.032750
701.00	0.030496
702.00	0.028193
703.00	0.026345
704.00	0.024379
705.00	0.022909
706.00	0.021081
707.00	0.019424
708.00	0.018122
709.00	0.017244
710.00	0.016093
711.00	0.014667
712.00	0.013780
713.00	0.013186
714.00	0.011626
715.00	0.011067
716.00	0.010723
717.00	0.010247
718.00	0.0095529
719.00	0.0088762
720.00	0.0082233
721.00	0.0078490
722.00	0.0071864
723.00	0.0067811
724.00	0.0061938
725.00	0.0060085
726.00	0.0057333
727.00	0.0052673
728.00	0.0048501
729.00	0.0047158
730.00	0.0044801
731.00	0.0041057
732.00	0.0040813
733.00	0.0040954
734.00	0.0036950
735.00	0.0040488
736.00	0.0032361
737.00	0.0031955
738.00	0.0028807
739.00	0.0032773
740.00	0.0028899
741.00	0.0026521
742.00	0.0021265
743.00	0.0028932
744.00	0.0026071
745.00	0.0023980
746.00	0.0027236
747.00	0.0023216
748.00	0.0022788
749.00	0.0025204
750.00	0.0020518
751.00	0.0020301
752.00	0.0024327
753.00	0.0023162
754.00	0.0017159
755.00	0.0021190
756.00	0.0015560
757.00	0.0018101
758.00	0.0018984
759.00	0.0019889
760.00	0.0018990
761.00	0.0017115
762.00	0.0020160
763.00	0.0013409
764.00	0.0019808
765.00	0.0018302
766.00	0.0018323
767.00	0.0016942
768.00	0.0018925
769.00	0.0014786
770.00	0.0018394
771.00	0.0017847
772.00	0.0013805
773.00	0.0014265
774.00	0.0022663
775.00	0.0023026
776.00	0.0016243
777.00	0.0017191
778.00	0.0018009
779.00	0.0013290
780.00	0.0014623
781.00	0.0015950
782.00	0.0011649
783.00	0.0016725
784.00	0.0016693
785.00	0.0012093
786.00	0.0013485
787.00	0.0013832
788.00	0.0014932
789.00	0.0016763
790.00	0.0015495
791.00	0.0015279
792.00	0.0019228
793.00	0.0014027
794.00	0.0014547
795.00	0.0014374
796.00	0.0018139
797.00	0.0012347
798.00	0.0013176
799.00	0.0015934
800.00	0.0013404
