Wavelength (nm)	N05 abs N
220.00	0.28687
220.25	0.29326
220.50	0.28654
220.75	0.28076
221.00	0.27733
221.25	0.28227
221.50	0.27838
221.75	0.28133
222.00	0.26828
222.25	0.26753
222.50	0.27242
222.75	0.27137
223.00	0.26306
223.25	0.26761
223.50	0.25206
223.75	0.26319
224.00	0.25928
224.25	0.25194
224.50	0.25411
224.75	0.25817
225.00	0.25143
225.25	0.25498
225.50	0.25364
225.75	0.25309
226.00	0.25019
226.25	0.24965
226.50	0.24107
226.75	0.24965
227.00	0.24397
227.25	0.24292
227.50	0.24886
227.75	0.23539
228.00	0.24866
228.25	0.24557
228.50	0.24863
228.75	0.24094
229.00	0.23294
229.25	0.23989
229.50	0.23711
229.75	0.23775
230.00	0.24576
230.25	0.24336
230.50	0.23794
230.75	0.23675
231.00	0.23714
231.25	0.23876
231.50	0.23678
231.75	0.23409
232.00	0.23498
232.25	0.24152
232.50	0.24032
232.75	0.24371
233.00	0.23503
233.25	0.24146
233.50	0.23619
233.75	0.23830
234.00	0.23726
234.25	0.23873
234.50	0.24663
234.75	0.23611
235.00	0.24706
235.25	0.24169
235.50	0.24260
235.75	0.24957
236.00	0.24060
236.25	0.24393
236.50	0.24322
236.75	0.23620
237.00	0.24748
237.25	0.24423
237.50	0.24897
237.75	0.24616
238.00	0.24246
238.25	0.24928
238.50	0.24883
238.75	0.25196
239.00	0.25104
239.25	0.24577
239.50	0.24843
239.75	0.25576
240.00	0.25038
240.25	0.25519
240.50	0.25607
240.75	0.25069
241.00	0.25353
241.25	0.25112
241.50	0.25655
241.75	0.25708
242.00	0.26278
242.25	0.26123
242.50	0.25841
242.75	0.25369
243.00	0.25388
243.25	0.25802
243.50	0.25910
243.75	0.25530
244.00	0.25589
244.25	0.25188
244.50	0.25544
244.75	0.26291
245.00	0.25409
245.25	0.25583
245.50	0.25091
245.75	0.25044
246.00	0.25052
246.25	0.24423
246.50	0.24797
246.75	0.24918
247.00	0.24258
247.25	0.24682
247.50	0.24565
247.75	0.24520
248.00	0.24444
248.25	0.25059
248.50	0.25043
248.75	0.25075
249.00	0.25005
249.25	0.24433
249.50	0.25222
249.75	0.24914
250.00	0.24950
250.25	0.25258
250.50	0.24961
250.75	0.25417
251.00	0.25385
251.25	0.25133
251.50	0.24992
251.75	0.24594
252.00	0.25016
252.25	0.25104
252.50	0.25391
252.75	0.25066
253.00	0.24897
253.25	0.25298
253.50	0.25037
253.75	0.25532
254.00	0.25167
254.25	0.25221
254.50	0.25070
254.75	0.24937
255.00	0.25111
255.25	0.25829
255.50	0.25153
255.75	0.25253
256.00	0.24463
256.25	0.24522
256.50	0.24643
256.75	0.25217
257.00	0.24793
257.25	0.25595
257.50	0.25450
257.75	0.25597
258.00	0.25408
258.25	0.25654
258.50	0.24952
258.75	0.25548
259.00	0.25284
259.25	0.25483
259.50	0.25770
259.75	0.25539
260.00	0.25648
260.25	0.25086
260.50	0.25352
260.75	0.25470
261.00	0.24180
261.25	0.24928
261.50	0.24821
261.75	0.24660
262.00	0.23410
262.25	0.24161
262.50	0.23738
262.75	0.23085
263.00	0.22171
263.25	0.21685
263.50	0.21168
263.75	0.20191
264.00	0.20169
264.25	0.19744
264.50	0.18816
264.75	0.18334
265.00	0.17329
265.25	0.16826
265.50	0.15935
265.75	0.16086
266.00	0.15261
266.25	0.14706
266.50	0.13776
266.75	0.13630
267.00	0.12967
267.25	0.12274
267.50	0.11741
267.75	0.11230
268.00	0.10596
268.25	0.10402
268.50	0.097521
268.75	0.098320
269.00	0.091469
269.25	0.088735
269.50	0.082312
269.75	0.082879
270.00	0.076916
270.25	0.075425
270.50	0.069203
270.75	0.065372
271.00	0.067793
271.25	0.066904
271.50	0.062944
271.75	0.064514
272.00	0.055371
272.25	0.051497
272.50	0.056261
272.75	0.056811
273.00	0.052561
273.25	0.047801
273.50	0.053212
273.75	0.049177
274.00	0.047764
274.25	0.042870
274.50	0.041155
274.75	0.042088
275.00	0.041046
275.25	0.044108
275.50	0.036929
275.75	0.045083
276.00	0.042632
276.25	0.044898
276.50	0.043717
276.75	0.041542
277.00	0.042080
277.25	0.035502
277.50	0.036817
277.75	0.038691
278.00	0.036116
278.25	0.038896
278.50	0.030985
278.75	0.031387
279.00	0.037506
279.25	0.034555
279.50	0.034723
279.75	0.031287
280.00	0.030196
280.25	0.031825
280.50	0.033213
280.75	0.028967
281.00	0.033757
281.25	0.031184
281.50	0.025955
281.75	0.033131
282.00	0.033494
282.25	0.027024
282.50	0.031699
282.75	0.034302
283.00	0.034672
283.25	0.032235
283.50	0.031051
283.75	0.032681
284.00	0.035140
284.25	0.034633
284.50	0.031928
284.75	0.030539
285.00	0.034033
285.25	0.036974
285.50	0.029478
285.75	0.036304
286.00	0.029681
286.25	0.043279
286.50	0.032982
286.75	0.034272
287.00	0.037600
287.25	0.037629
287.50	0.037745
287.75	0.038526
288.00	0.036191
288.25	0.041812
288.50	0.037463
288.75	0.037312
289.00	0.039711
289.25	0.044963
289.50	0.037024
289.75	0.044672
290.00	0.046051
290.25	0.046637
290.50	0.046423
290.75	0.043671
291.00	0.045986
291.25	0.046836
291.50	0.052516
291.75	0.052139
292.00	0.048806
292.25	0.048061
292.50	0.047585
292.75	0.054761
293.00	0.054302
293.25	0.053101
293.50	0.059155
293.75	0.055860
294.00	0.062724
294.25	0.059237
294.50	0.064029
294.75	0.060232
295.00	0.066327
295.25	0.066055
295.50	0.066910
295.75	0.065627
296.00	0.072004
296.25	0.064637
296.50	0.072774
296.75	0.071958
297.00	0.071698
297.25	0.076305
297.50	0.073652
297.75	0.075587
298.00	0.075152
298.25	0.081255
298.50	0.080995
298.75	0.082482
299.00	0.082677
299.25	0.084590
299.50	0.086345
299.75	0.085478
300.00	0.092171
300.25	0.093142
300.50	0.096309
300.75	0.095309
301.00	0.094822
301.25	0.099085
301.50	0.097090
301.75	0.10491
302.00	0.11091
302.25	0.11222
302.50	0.10595
302.75	0.10710
303.00	0.10683
303.25	0.11569
303.50	0.11334
303.75	0.11733
304.00	0.11294
304.25	0.11963
304.50	0.12051
304.75	0.12502
305.00	0.12462
305.25	0.12830
305.50	0.12428
305.75	0.13150
306.00	0.13480
306.25	0.13266
306.50	0.12485
306.75	0.12958
307.00	0.13539
307.25	0.13802
307.50	0.13386
307.75	0.12913
308.00	0.13193
308.25	0.13397
308.50	0.14009
308.75	0.13813
309.00	0.13621
309.25	0.13997
309.50	0.14460
309.75	0.13761
310.00	0.13845
310.25	0.13913
310.50	0.13563
310.75	0.13715
311.00	0.14333
311.25	0.13769
311.50	0.14178
311.75	0.14424
312.00	0.13721
312.25	0.13580
312.50	0.13795
312.75	0.13857
313.00	0.13535
313.25	0.12832
313.50	0.12950
313.75	0.13338
314.00	0.13589
314.25	0.12709
314.50	0.12676
314.75	0.13029
315.00	0.13141
315.25	0.13086
315.50	0.13178
315.75	0.12119
316.00	0.12475
316.25	0.12174
316.50	0.11562
316.75	0.12024
317.00	0.11974
317.25	0.11680
317.50	0.11474
317.75	0.11698
318.00	0.10663
318.25	0.10552
318.50	0.10094
318.75	0.11475
319.00	0.10386
319.25	0.10041
319.50	0.10245
319.75	0.10334
320.00	0.10312
320.25	0.098233
320.50	0.092094
320.75	0.099450
321.00	0.097379
321.25	0.084103
321.50	0.083933
321.75	0.085378
322.00	0.095379
322.25	0.089365
322.50	0.084268
322.75	0.083288
323.00	0.078027
323.25	0.076326
323.50	0.080994
323.75	0.082125
324.00	0.079257
324.25	0.072888
324.50	0.063333
324.75	0.071175
325.00	0.067925
325.25	0.065444
325.50	0.065227
325.75	0.066353
326.00	0.072919
326.25	0.065571
326.50	0.068351
326.75	0.072947
327.00	0.062596
327.25	0.066702
327.50	0.063968
327.75	0.063375
328.00	0.056540
328.25	0.063672
328.50	0.057431
328.75	0.054300
329.00	0.059301
329.25	0.052742
329.50	0.057544
329.75	0.056150
330.00	0.057335
330.25	0.057996
330.50	0.060100
330.75	0.055093
331.00	0.058182
331.25	0.046708
331.50	0.052332
331.75	0.051487
332.00	0.045082
332.25	0.039346
332.50	0.046887
332.75	0.045154
333.00	0.051845
333.25	0.047939
333.50	0.049619
333.75	0.051012
334.00	0.047223
334.25	0.047083
334.50	0.048356
334.75	0.051436
335.00	0.049581
335.25	0.056379
335.50	0.047801
335.75	0.053744
336.00	0.051492
336.25	0.045230
336.50	0.052130
336.75	0.045209
337.00	0.044346
337.25	0.049494
337.50	0.056598
337.75	0.051650
338.00	0.055472
338.25	0.054314
338.50	0.055684
338.75	0.055867
339.00	0.050437
339.25	0.059946
339.50	0.053321
339.75	0.054130
340.00	0.059186
340.25	0.057708
340.50	0.052862
340.75	0.047299
341.00	0.060852
341.25	0.053725
341.50	0.052633
341.75	0.047260
342.00	0.059437
342.25	0.058955
342.50	0.056861
342.75	0.058366
343.00	0.054310
343.25	0.055248
343.50	0.053829
343.75	0.056880
344.00	0.055958
344.25	0.055932
344.50	0.055686
344.75	0.060070
345.00	0.057723
345.25	0.054445
345.50	0.058360
345.75	0.052038
346.00	0.057880
346.25	0.047424
346.50	0.052231
346.75	0.050203
347.00	0.049608
347.25	0.046326
347.50	0.052650
347.75	0.050514
348.00	0.043305
348.25	0.046569
348.50	0.046551
348.75	0.042354
349.00	0.039660
349.25	0.055646
349.50	0.043708
349.75	0.037241
350.00	0.039496
350.25	0.040355
350.50	0.034044
350.75	0.037454
351.00	0.036027
351.25	0.035279
351.50	0.036309
351.75	0.030935
352.00	0.034304
352.25	0.031560
352.50	0.036055
352.75	0.035519
353.00	0.031004
353.25	0.034750
353.50	0.030735
353.75	0.035781
354.00	0.029406
354.25	0.025906
354.50	0.029112
354.75	0.024469
355.00	0.027386
355.25	0.027590
355.50	0.024469
355.75	0.023863
356.00	0.023614
356.25	0.023245
356.50	0.022657
356.75	0.024822
357.00	0.018935
357.25	0.021068
357.50	0.023473
357.75	0.022165
358.00	0.024331
358.25	0.021843
358.50	0.022517
358.75	0.016459
359.00	0.019855
359.25	0.022819
359.50	0.020854
359.75	0.019639
360.00	0.019610
360.25	0.017693
360.50	0.019906
360.75	0.018839
361.00	0.016288
361.25	0.013809
361.50	0.017747
361.75	0.019371
362.00	0.015631
362.25	0.018120
362.50	0.022605
362.75	0.018214
363.00	0.018473
363.25	0.016640
363.50	0.014882
363.75	0.015382
364.00	0.013001
364.25	0.011900
364.50	0.016296
364.75	0.017249
365.00	0.014557
365.25	0.021456
365.50	0.013873
365.75	0.015375
366.00	0.013788
366.25	0.015017
366.50	0.014213
366.75	0.016021
367.00	0.014924
367.25	0.017432
367.50	0.015761
367.75	0.012124
368.00	0.015683
368.25	0.013424
368.50	0.016479
368.75	0.014707
369.00	0.010750
369.25	0.019522
369.50	0.015874
369.75	0.016683
370.00	0.015793
370.25	0.015128
370.50	0.012014
370.75	0.014918
371.00	0.015723
371.25	0.011765
371.50	0.015889
371.75	0.015742
372.00	0.012902
372.25	0.016995
372.50	0.014723
372.75	0.014808
373.00	0.015968
373.25	0.017154
373.50	0.019605
373.75	0.014253
374.00	0.011554
374.25	0.013299
374.50	0.016460
374.75	0.012992
375.00	0.017133
375.25	0.016386
375.50	0.017075
375.75	0.012954
376.00	0.018025
376.25	0.015761
376.50	0.017179
376.75	0.013271
377.00	0.018673
377.25	0.015409
377.50	0.012680
377.75	0.018709
378.00	0.017032
378.25	0.016458
378.50	0.013876
378.75	0.014200
379.00	0.017970
379.25	0.017022
379.50	0.017281
379.75	0.018202
380.00	0.012992
380.25	0.015636
380.50	0.016410
380.75	0.013915
381.00	0.020399
381.25	0.012659
381.50	0.016192
381.75	0.018824
382.00	0.017175
382.25	0.015820
382.50	0.020053
382.75	0.014776
383.00	0.017954
383.25	0.018556
383.50	0.013530
383.75	0.013396
384.00	0.017916
384.25	0.018099
384.50	0.018071
384.75	0.019887
385.00	0.017024
385.25	0.014607
385.50	0.016471
385.75	0.017116
386.00	0.017541
386.25	0.016598
386.50	0.018097
386.75	0.019221
387.00	0.018036
387.25	0.015732
387.50	0.020077
387.75	0.020079
388.00	0.017687
388.25	0.018655
388.50	0.021266
388.75	0.018883
389.00	0.017479
389.25	0.020402
389.50	0.020791
389.75	0.018461
390.00	0.018159
390.25	0.021901
390.50	0.022018
390.75	0.015859
391.00	0.018266
391.25	0.018944
391.50	0.020344
391.75	0.019280
392.00	0.021541
392.25	0.020334
392.50	0.020747
392.75	0.019082
393.00	0.019421
393.25	0.017658
393.50	0.020914
393.75	0.020498
394.00	0.017724
394.25	0.019376
394.50	0.021241
394.75	0.020021
395.00	0.020102
395.25	0.019412
395.50	0.019873
395.75	0.018351
396.00	0.019095
396.25	0.018722
396.50	0.020775
396.75	0.019274
397.00	0.021435
397.25	0.019942
397.50	0.019728
397.75	0.021636
398.00	0.019005
398.25	0.018890
398.50	0.020490
398.75	0.020496
399.00	0.021489
399.25	0.018819
399.50	0.019073
399.75	0.021251
400.00	0.019505
400.25	0.018246
400.50	0.018300
400.75	0.022375
401.00	0.021509
401.25	0.020281
401.50	0.022117
401.75	0.019450
402.00	0.020832
402.25	0.020242
402.50	0.017140
402.75	0.015535
403.00	0.018610
403.25	0.018297
403.50	0.017908
403.75	0.019373
404.00	0.020378
404.25	0.018002
404.50	0.019113
404.75	0.018512
405.00	0.018883
405.25	0.019775
405.50	0.016370
405.75	0.017154
406.00	0.017283
406.25	0.017909
406.50	0.018699
406.75	0.018535
407.00	0.016804
407.25	0.015560
407.50	0.017416
407.75	0.017537
408.00	0.019096
408.25	0.018920
408.50	0.017132
408.75	0.016395
409.00	0.015147
409.25	0.016189
409.50	0.015292
409.75	0.015485
410.00	0.017404
410.25	0.016724
410.50	0.014841
410.75	0.016605
411.00	0.012885
411.25	0.014676
411.50	0.015934
411.75	0.014809
412.00	0.016859
412.25	0.016501
412.50	0.017063
412.75	0.015933
413.00	0.018618
413.25	0.017816
413.50	0.013591
413.75	0.017250
414.00	0.013549
414.25	0.014133
414.50	0.015180
414.75	0.014169
415.00	0.014486
415.25	0.017811
415.50	0.016415
415.75	0.016226
416.00	0.017197
416.25	0.015679
416.50	0.019749
416.75	0.013527
417.00	0.018364
417.25	0.015863
417.50	0.012543
417.75	0.015491
418.00	0.011997
418.25	0.012208
418.50	0.013929
418.75	0.013234
419.00	0.014617
419.25	0.016024
419.50	0.015539
419.75	0.012540
420.00	0.016887
420.25	0.012670
420.50	0.013633
420.75	0.016066
421.00	0.014868
421.25	0.017148
421.50	0.015855
421.75	0.014500
422.00	0.015109
422.25	0.013781
422.50	0.016846
422.75	0.015008
423.00	0.013499
423.25	0.015130
423.50	0.015015
423.75	0.018657
424.00	0.014547
424.25	0.015055
424.50	0.011959
424.75	0.014258
425.00	0.013291
425.25	0.015795
425.50	0.016339
425.75	0.017764
426.00	0.016063
426.25	0.012420
426.50	0.012873
426.75	0.015052
427.00	0.014046
427.25	0.016719
427.50	0.014827
427.75	0.012382
428.00	0.014233
428.25	0.013920
428.50	0.013180
428.75	0.015153
429.00	0.015153
429.25	0.014898
429.50	0.015645
429.75	0.014000
430.00	0.013433
430.25	0.014318
430.50	0.016361
430.75	0.013465
431.00	0.015896
431.25	0.016659
431.50	0.013210
431.75	0.015272
432.00	0.014334
432.25	0.015070
432.50	0.013531
432.75	0.013291
433.00	0.013903
433.25	0.014029
433.50	0.015976
433.75	0.015548
434.00	0.014517
434.25	0.016379
434.50	0.014358
434.75	0.014428
435.00	0.014383
435.25	0.019158
435.50	0.016378
435.75	0.016384
436.00	0.016946
436.25	0.017184
436.50	0.016707
436.75	0.012693
437.00	0.016670
437.25	0.016640
437.50	0.017042
437.75	0.017205
438.00	0.017572
438.25	0.018709
438.50	0.018865
438.75	0.018094
439.00	0.015758
439.25	0.017937
439.50	0.017594
439.75	0.018691
440.00	0.019435
440.25	0.018796
440.50	0.019510
440.75	0.019045
441.00	0.021034
441.25	0.020385
441.50	0.021761
441.75	0.020432
442.00	0.021069
442.25	0.020784
442.50	0.021767
442.75	0.021175
443.00	0.021264
443.25	0.023815
443.50	0.022973
443.75	0.022853
444.00	0.024175
444.25	0.023454
444.50	0.026457
444.75	0.022965
445.00	0.025615
445.25	0.023994
445.50	0.027180
445.75	0.028384
446.00	0.025695
446.25	0.026307
446.50	0.026201
446.75	0.029826
447.00	0.029703
447.25	0.027853
447.50	0.025935
447.75	0.029799
448.00	0.028993
448.25	0.030020
448.50	0.031931
448.75	0.031413
449.00	0.032986
449.25	0.034637
449.50	0.032790
449.75	0.032920
450.00	0.034178
450.25	0.035371
450.50	0.033938
450.75	0.035316
451.00	0.037232
451.25	0.037214
451.50	0.036488
451.75	0.039634
452.00	0.037622
452.25	0.039678
452.50	0.038864
452.75	0.038163
453.00	0.040495
453.25	0.041777
453.50	0.042711
453.75	0.041423
454.00	0.043346
454.25	0.042960
454.50	0.045084
454.75	0.044200
455.00	0.045266
455.25	0.046797
455.50	0.046623
455.75	0.047668
456.00	0.046980
456.25	0.048820
456.50	0.050348
456.75	0.048365
457.00	0.051156
457.25	0.051893
457.50	0.050350
457.75	0.051227
458.00	0.052875
458.25	0.053738
458.50	0.052814
458.75	0.052505
459.00	0.056264
459.25	0.055331
459.50	0.056397
459.75	0.059438
460.00	0.059294
460.25	0.060640
460.50	0.060327
460.75	0.059902
461.00	0.060597
461.25	0.062000
461.50	0.059522
461.75	0.062284
462.00	0.062132
462.25	0.063890
462.50	0.063286
462.75	0.063638
463.00	0.063678
463.25	0.066664
463.50	0.067031
463.75	0.067650
464.00	0.070454
464.25	0.070068
464.50	0.070672
464.75	0.070483
465.00	0.072505
465.25	0.070138
465.50	0.074131
465.75	0.074442
466.00	0.075209
466.25	0.077506
466.50	0.077547
466.75	0.078715
467.00	0.080022
467.25	0.081654
467.50	0.081462
467.75	0.081302
468.00	0.084360
468.25	0.086668
468.50	0.085037
468.75	0.086435
469.00	0.090378
469.25	0.089197
469.50	0.090295
469.75	0.090916
470.00	0.093765
470.25	0.094150
470.50	0.095075
470.75	0.097126
471.00	0.098352
471.25	0.10148
471.50	0.10421
471.75	0.10436
472.00	0.10365
472.25	0.10845
472.50	0.10780
472.75	0.11014
473.00	0.11243
473.25	0.11392
473.50	0.11741
473.75	0.11979
474.00	0.12600
474.25	0.12532
474.50	0.12781
474.75	0.13096
475.00	0.13178
475.25	0.13668
475.50	0.13739
475.75	0.14092
476.00	0.14038
476.25	0.14361
476.50	0.14652
476.75	0.14826
477.00	0.15075
477.25	0.15422
477.50	0.15541
477.75	0.16249
478.00	0.16208
478.25	0.16699
478.50	0.16785
478.75	0.17193
479.00	0.17238
479.25	0.17691
479.50	0.17815
479.75	0.18095
480.00	0.18422
480.25	0.18833
480.50	0.18844
480.75	0.19412
481.00	0.19812
481.25	0.19987
481.50	0.20359
481.75	0.20605
482.00	0.20780
482.25	0.20909
482.50	0.21347
482.75	0.21544
483.00	0.21984
483.25	0.22157
483.50	0.22287
483.75	0.22575
484.00	0.22928
484.25	0.23364
484.50	0.23784
484.75	0.23997
485.00	0.23978
485.25	0.24410
485.50	0.24373
485.75	0.24720
486.00	0.24971
486.25	0.25308
486.50	0.25328
486.75	0.25591
487.00	0.25966
487.25	0.26260
487.50	0.26433
487.75	0.26606
488.00	0.26817
488.25	0.27073
488.50	0.27006
488.75	0.27300
489.00	0.27586
489.25	0.27578
489.50	0.28022
489.75	0.28125
490.00	0.28157
490.25	0.28378
490.50	0.28518
490.75	0.28742
491.00	0.28759
491.25	0.28797
491.50	0.28936
491.75	0.28964
492.00	0.29169
492.25	0.29336
492.50	0.29578
492.75	0.29392
493.00	0.29647
493.25	0.29742
493.50	0.29757
493.75	0.29658
494.00	0.29890
494.25	0.29871
494.50	0.30019
494.75	0.29807
495.00	0.30029
495.25	0.30087
495.50	0.30213
495.75	0.30416
496.00	0.30488
496.25	0.30556
496.50	0.30392
496.75	0.30734
497.00	0.30680
497.25	0.30843
497.50	0.30880
497.75	0.30712
498.00	0.30996
498.25	0.30990
498.50	0.31376
498.75	0.31422
499.00	0.31703
499.25	0.31654
499.50	0.31817
499.75	0.32135
500.00	0.32398
500.25	0.32387
500.50	0.32652
500.75	0.32745
501.00	0.32946
501.25	0.33465
501.50	0.33696
501.75	0.33626
502.00	0.34238
502.25	0.34132
502.50	0.34560
502.75	0.34923
503.00	0.35394
503.25	0.35629
503.50	0.35972
503.75	0.36322
504.00	0.36850
504.25	0.37278
504.50	0.37751
504.75	0.38155
505.00	0.38376
505.25	0.39074
505.50	0.39556
505.75	0.39944
506.00	0.40533
506.25	0.41228
506.50	0.41496
506.75	0.42148
507.00	0.42850
507.25	0.43423
507.50	0.44171
507.75	0.44934
508.00	0.45540
508.25	0.46197
508.50	0.46939
508.75	0.47581
509.00	0.48470
509.25	0.49280
509.50	0.49917
509.75	0.50891
510.00	0.51648
510.25	0.52649
510.50	0.53238
510.75	0.54121
511.00	0.55156
511.25	0.56064
511.50	0.56960
511.75	0.57756
512.00	0.58949
512.25	0.59567
512.50	0.60646
512.75	0.61577
513.00	0.62802
513.25	0.63864
513.50	0.64879
513.75	0.66250
514.00	0.67437
514.25	0.68665
514.50	0.70021
514.75	0.71087
515.00	0.72397
515.25	0.73253
515.50	0.74333
515.75	0.75347
516.00	0.76265
516.25	0.77053
516.50	0.78810
516.75	0.79249
517.00	0.80393
517.25	0.81427
517.50	0.82272
517.75	0.83202
518.00	0.84413
518.25	0.85278
518.50	0.86128
518.75	0.86658
519.00	0.87642
519.25	0.88968
519.50	0.89318
519.75	0.90370
520.00	0.91060
520.25	0.92053
520.50	0.92877
520.75	0.93575
521.00	0.93947
521.25	0.95016
521.50	0.95447
521.75	0.96099
522.00	0.96437
522.25	0.97170
522.50	0.97566
522.75	0.97726
523.00	0.98201
523.25	0.98923
523.50	0.99048
523.75	0.98982
524.00	0.99275
524.25	0.99361
524.50	0.99697
524.75	1.0000
525.00	0.99838
525.25	0.99674
525.50	0.99517
525.75	0.99222
526.00	0.99508
526.25	0.99166
526.50	0.99163
526.75	0.98475
527.00	0.97992
527.25	0.97858
527.50	0.97080
527.75	0.96758
528.00	0.96128
528.25	0.95204
528.50	0.94696
528.75	0.94085
529.00	0.92888
529.25	0.92407
529.50	0.91297
529.75	0.90103
530.00	0.89181
530.25	0.88095
530.50	0.87027
530.75	0.85748
531.00	0.84872
531.25	0.83560
531.50	0.82350
531.75	0.81200
532.00	0.79978
532.25	0.78561
532.50	0.77168
532.75	0.75815
533.00	0.74546
533.25	0.72867
533.50	0.71801
533.75	0.70064
534.00	0.68966
534.25	0.67509
534.50	0.66369
534.75	0.65130
535.00	0.64044
535.25	0.63028
535.50	0.61663
535.75	0.60228
536.00	0.58824
536.25	0.57176
536.50	0.55811
536.75	0.54221
537.00	0.52807
537.25	0.51372
537.50	0.49749
537.75	0.48485
538.00	0.46941
538.25	0.45607
538.50	0.44158
538.75	0.42774
539.00	0.41489
539.25	0.39985
539.50	0.39052
539.75	0.37735
540.00	0.36195
540.25	0.35069
540.50	0.33906
540.75	0.32758
541.00	0.31743
541.25	0.30519
541.50	0.29426
541.75	0.28502
542.00	0.27522
542.25	0.26379
542.50	0.25280
542.75	0.24338
543.00	0.23976
543.25	0.22742
543.50	0.22000
543.75	0.21157
544.00	0.20582
544.25	0.19723
544.50	0.18658
544.75	0.18071
545.00	0.17396
545.25	0.16556
545.50	0.16075
545.75	0.15393
546.00	0.14950
546.25	0.14310
546.50	0.13753
546.75	0.13249
547.00	0.12568
547.25	0.12015
547.50	0.11502
547.75	0.11066
548.00	0.10621
548.25	0.10098
548.50	0.097625
548.75	0.094715
549.00	0.091368
549.25	0.088172
549.50	0.083716
549.75	0.079524
550.00	0.077592
550.25	0.073797
550.50	0.071094
550.75	0.067597
551.00	0.065048
551.25	0.060275
551.50	0.060283
551.75	0.057657
552.00	0.054550
552.25	0.052798
552.50	0.051565
552.75	0.046960
553.00	0.044890
553.25	0.043971
553.50	0.039712
553.75	0.039513
554.00	0.037363
554.25	0.035279
554.50	0.033971
554.75	0.032213
555.00	0.031780
555.25	0.030734
555.50	0.029895
555.75	0.028668
556.00	0.027691
556.25	0.025561
556.50	0.025076
556.75	0.024304
557.00	0.022238
557.25	0.022828
557.50	0.022355
557.75	0.019847
558.00	0.019502
558.25	0.020769
558.50	0.019383
558.75	0.018614
559.00	0.016266
559.25	0.017122
559.50	0.015922
559.75	0.015203
560.00	0.014430
560.25	0.013489
560.50	0.012896
560.75	0.011980
561.00	0.013047
561.25	0.012063
561.50	0.012417
561.75	0.010839
562.00	0.011559
562.25	0.010720
562.50	0.010343
562.75	0.010024
563.00	0.010978
563.25	0.010497
563.50	0.0088479
563.75	0.0095025
564.00	0.0073611
564.25	0.0085470
564.50	0.0095280
564.75	0.0077826
565.00	0.0062164
565.25	0.0080981
565.50	0.0068711
565.75	0.0071935
566.00	0.0081540
566.25	0.0085392
566.50	0.0068750
566.75	0.0043926
567.00	0.0070573
567.25	0.0045749
567.50	0.0051100
567.75	0.0067613
568.00	0.0042563
568.25	0.0051119
568.50	0.0032518
568.75	0.0071465
569.00	0.0051305
569.25	0.0036409
569.50	0.0048179
569.75	0.0048757
570.00	0.0034066
570.25	0.0046876
570.50	0.0013603
570.75	0.0038682
571.00	0.0048601
571.25	0.0014309
571.50	0.0034047
571.75	0.0039496
572.00	0.0034419
572.25	0.0024511
572.50	0.0028020
572.75	0.0033890
573.00	0.0017161
573.25	0.0034958
573.50	0.0032469
573.75	0.0012162
574.00	0.0020120
574.25	0.0030960
574.50	0.00059587
574.75	0.0022218
575.00	0.0047150
575.25	0.0027990
575.50	0.0034586
575.75	0.0030617
576.00	0.0037810
576.25	0.0013309
576.50	0.0035056
576.75	0.00026265
577.00	0.0010565
577.25	0.0018366
577.50	0.0014799
577.75	0.0016426
578.00	0.0026402
578.25	0.0010310
578.50	0.0020679
578.75	0.0023560
579.00	0.0015308
579.25	0.0032685
579.50	-0.0010026
579.75	0.0036144
580.00	0.0029872
580.25	0.00077326
580.50	0.0016720
580.75	-0.00031950
581.00	0.00045180
581.25	0.00099671
581.50	-0.00079384
581.75	0.0032312
582.00	0.0029558
582.25	0.0037536
582.50	-0.00030577
582.75	0.0024854
583.00	0.0016994
583.25	0.0016916
583.50	0.0012986
583.75	0.00045964
584.00	0.00075856
584.25	0.00035968
584.50	0.0015945
584.75	0.0015279
585.00	0.0031077
585.25	0.0013348
585.50	0.00094869
585.75	-0.00089576
586.00	0.0015054
586.25	0.00075856
586.50	-0.00011271
586.75	0.00077620
587.00	0.00073406
587.25	0.0013515
587.50	0.0018846
587.75	0.0018680
588.00	0.0024923
588.25	0.00085558
588.50	0.0010771
588.75	0.0020748
589.00	-7.8404e-05
589.25	0.00093987
589.50	0.0020395
589.75	-0.0010232
590.00	0.0012780
590.25	0.0012064
590.50	0.0022727
590.75	-0.00034498
591.00	-0.00044886
591.25	0.0015044
591.50	0.0031097
591.75	0.0033988
592.00	0.00027441
592.25	0.00074974
592.50	0.00018425
592.75	0.0021404
593.00	9.6045e-05
593.25	2.8421e-05
593.50	0.00082226
593.75	0.00046846
594.00	0.00064977
594.25	0.0011682
594.50	0.0018572
594.75	-0.00058705
595.00	0.00078404
595.25	-0.0016700
595.50	0.00043318
595.75	0.0017651
596.00	-0.00063801
596.25	0.0020463
596.50	0.0016337
596.75	0.0019042
597.00	0.00037928
597.25	0.0013995
597.50	-3.3321e-05
597.75	7.5464e-05
598.00	-0.00033518
598.25	0.0015779
598.50	0.00094771
598.75	0.0011614
599.00	-3.1362e-05
599.25	-0.00078992
599.50	0.0013123
599.75	0.0018474
600.00	0.00011271
600.25	0.0011065
600.50	0.0021012
600.75	0.0031509
601.00	0.0019768
601.25	0.0037036
601.50	0.0028088
601.75	0.00084284
602.00	0.0010634
602.25	0.0017072
602.50	0.0019297
602.75	0.00024109
603.00	0.0018209
603.25	0.0016847
603.50	-0.0010241
603.75	0.0019170
604.00	-0.0015593
604.25	-2.9400e-06
604.50	-0.00075366
604.75	-0.0018386
605.00	0.0017994
605.25	0.0018376
605.50	0.0025089
605.75	0.0028539
606.00	0.0016729
606.25	0.00087028
606.50	0.00028911
606.75	-0.00035380
607.00	0.00087910
607.25	0.00097319
607.50	0.0011692
607.75	0.0016367
608.00	-0.00054589
608.25	0.0010810
608.50	0.00010977
608.75	0.0017141
609.00	0.00068211
609.25	0.0027912
609.50	0.0015671
609.75	0.0022698
610.00	0.0033028
610.25	-0.00010585
610.50	1.3721e-05
610.75	0.0010477
611.00	0.0010075
611.25	0.0011712
611.50	0.0018484
611.75	0.00033322
612.00	-0.00055765
612.25	0.0013819
612.50	0.00031460
612.75	0.0042720
613.00	0.0014328
613.25	0.0030822
613.50	0.00045278
613.75	-0.00076346
614.00	0.00033714
614.25	-1.9602e-06
614.50	0.00085754
614.75	0.00022933
615.00	0.0026736
615.25	0.00089870
615.50	0.0011525
615.75	0.00010094
616.00	0.0023864
616.25	0.0024286
616.50	0.0024148
616.75	0.00061743
617.00	0.0011516
617.25	0.0026285
617.50	0.0019160
617.75	0.0020728
618.00	0.0014083
618.25	0.0025511
618.50	0.0016739
618.75	0.0028490
619.00	0.0025785
619.25	0.0025099
619.50	-0.00034498
619.75	0.0015975
620.00	0.0032293
620.25	0.0019454
620.50	0.0022404
620.75	0.0011398
621.00	0.00097907
621.25	0.0019552
621.50	0.00063115
621.75	0.00069485
622.00	0.00011173
622.25	0.0040407
622.50	0.0027236
622.75	0.0032969
623.00	0.0013593
623.25	0.0025373
623.50	0.0010957
623.75	-8.1344e-05
624.00	-0.00062723
624.25	0.0015269
624.50	0.0019836
624.75	0.00085656
625.00	0.00057529
625.25	0.00092516
625.50	0.0038633
625.75	0.0018582
626.00	0.0010575
626.25	-0.00040868
626.50	0.0016426
626.75	0.0021492
627.00	-0.00042240
627.25	0.00020091
627.50	0.0032008
627.75	0.0032018
628.00	0.0036203
628.25	0.00070171
628.50	0.0019072
628.75	0.00015093
629.00	0.0017533
629.25	-0.00014015
629.50	-0.00094673
629.75	4.3122e-05
630.00	-0.0025040
630.25	0.0016043
630.50	0.0011741
630.75	0.0023413
631.00	-0.00025873
631.25	0.0033449
631.50	0.0015563
631.75	0.0039231
632.00	0.00023717
632.25	-0.00028323
632.50	-0.00079090
632.75	0.00067329
633.00	-2.5481e-05
633.25	0.0026187
633.50	0.0023188
633.75	0.00044200
634.00	-0.00030675
634.25	0.0031146
634.50	0.0017435
634.75	0.0014465
635.00	0.00016171
635.25	0.0022080
635.50	-0.00026853
635.75	-0.00084774
636.00	0.0011457
636.25	0.0026334
636.50	0.00088988
636.75	0.0031528
637.00	0.0019209
637.25	0.00081540
637.50	0.0011398
637.75	0.00065663
638.00	0.0021316
638.25	0.0016220
638.50	0.0029372
638.75	0.00011369
639.00	0.0015838
639.25	0.00081932
639.50	-0.00025187
639.75	0.0020865
640.00	0.0013534
640.25	0.0025785
640.50	0.00010192
640.75	-0.00019307
641.00	0.0015259
641.25	0.0020444
641.50	0.0023854
641.75	0.0028216
642.00	0.0026099
642.25	-0.00033126
642.50	0.0015210
642.75	0.0012868
643.00	-3.1362e-05
643.25	-9.3099e-11
643.50	-0.0018503
643.75	0.0013407
644.00	0.0016288
644.25	0.0018180
644.50	0.0015514
644.75	0.0018827
645.00	-0.0021042
645.25	0.00086440
645.50	-0.0010937
645.75	0.0019954
646.00	-4.2142e-05
646.25	-9.8005e-05
646.50	-0.0024991
646.75	0.0029107
647.00	0.0041701
647.25	0.0018572
647.50	-0.00056451
647.75	0.0010526
648.00	0.0034586
648.25	0.00046846
648.50	0.0017670
648.75	0.00078796
649.00	-0.00085656
649.25	0.0010977
649.50	0.0027383
649.75	0.0026471
650.00	0.0011545
650.25	0.00058999
650.50	0.00098005
650.75	0.00058607
651.00	0.00016563
651.25	0.0019915
651.50	0.0030146
651.75	0.0026412
652.00	0.0024217
652.25	0.0012133
652.50	0.0042975
652.75	-0.00050864
653.00	0.00011957
653.25	0.0012113
653.50	0.0014965
653.75	0.0032636
654.00	0.0029323
654.25	0.00055961
654.50	0.0027196
654.75	-0.00064487
655.00	-0.0016690
655.25	-0.00031558
655.50	0.0012760
655.75	-0.00067231
656.00	-0.0013721
656.25	-0.0015720
656.50	-0.00040966
656.75	-0.00095359
657.00	0.00069975
657.25	0.0011849
657.50	0.0016406
657.75	0.0011124
658.00	0.0028196
658.25	0.0038359
658.50	-0.00057725
658.75	0.0013985
659.00	0.0010732
659.25	0.0010477
659.50	0.0015377
659.75	0.0041289
660.00	-0.00015877
660.25	2.3521e-05
660.50	2.8421e-05
660.75	0.0010290
661.00	0.0014573
661.25	-0.0010859
661.50	-0.0016769
661.75	0.0057333
662.00	0.00040280
662.25	0.00021659
662.50	0.0017014
662.75	0.0021198
663.00	0.00031558
663.25	0.0017837
663.50	-0.0014642
663.75	0.0010330
664.00	0.0017582
664.25	0.0023012
664.50	0.0017415
664.75	0.0013093
665.00	0.00023913
665.25	-0.00084284
665.50	0.0028725
665.75	0.0035056
666.00	5.8803e-05
666.25	0.0011408
666.50	-0.00074288
666.75	-0.0015514
667.00	0.0046572
667.25	-0.00023031
667.50	0.0036869
667.75	0.0022864
668.00	-0.0010055
668.25	0.00024991
668.50	0.00072033
668.75	0.0014662
669.00	0.0016896
669.25	0.00075660
669.50	-0.00031067
669.75	0.0045984
670.00	-8.9184e-05
670.25	0.0010957
670.50	0.0022463
670.75	0.0010271
671.00	-0.0031479
671.25	0.0020179
671.50	0.0019542
671.75	-0.0018013
672.00	0.0012770
672.25	0.0017572
672.50	0.0027138
672.75	0.0022894
673.00	0.0015132
673.25	0.00022247
673.50	0.0012927
673.75	-0.00014113
674.00	0.0031812
674.25	0.00091830
674.50	0.0022492
674.75	0.0022071
675.00	0.00061155
675.25	0.00020385
675.50	0.0024776
675.75	-0.00064879
676.00	0.00081344
676.25	0.0020846
676.50	0.0010986
676.75	0.0027686
677.00	0.0010349
677.25	0.0032626
677.50	0.0013926
677.75	-0.00091732
678.00	0.00051550
678.25	0.0023815
678.50	-0.00075366
678.75	0.0024482
679.00	-0.00027833
679.25	0.0017268
679.50	0.00056941
679.75	0.00090654
680.00	0.0016288
680.25	5.9783e-05
680.50	0.0027853
680.75	0.00058117
681.00	0.0026157
681.25	-0.00049590
681.50	0.0024423
681.75	0.0022022
682.00	0.00022639
682.25	0.0024344
682.50	0.00087224
682.75	0.0032832
683.00	-0.00068701
683.25	0.0015416
683.50	-3.9202e-05
683.75	0.0023982
684.00	9.0164e-05
684.25	0.0025403
684.50	0.00015779
684.75	0.0016386
685.00	0.0034351
685.25	-8.2324e-05
685.50	0.0019170
685.75	0.00099671
686.00	0.0019121
686.25	0.0021375
686.50	0.0016671
686.75	0.0015563
687.00	0.0023570
687.25	0.0012819
687.50	0.00080266
687.75	-0.00031263
688.00	0.0011859
688.25	0.0032939
688.50	0.00078796
688.75	0.00054981
689.00	0.0022531
689.25	0.0020454
689.50	0.0030842
689.75	9.4085e-05
690.00	-0.00058901
690.25	0.0020552
690.50	0.00097809
690.75	0.00062821
691.00	0.0019003
691.25	-0.0018611
691.50	0.00059195
691.75	-0.00063899
692.00	0.0014407
692.25	0.0043622
692.50	0.0017553
692.75	0.0014269
693.00	0.0013240
693.25	0.0017278
693.50	0.0035527
693.75	0.00034498
694.00	0.00016955
694.25	0.0018219
694.50	0.0021404
694.75	0.0012045
695.00	0.00056941
695.25	0.0031871
695.50	0.0012809
695.75	0.0014191
696.00	0.00019601
696.25	0.00032832
696.50	0.0033184
696.75	0.00077718
697.00	0.0020904
697.25	0.0025089
697.50	-0.0017621
697.75	0.00073210
698.00	0.00082520
698.25	0.00016269
698.50	0.00028323
698.75	0.0020953
699.00	0.00048218
699.25	-0.0012280
699.50	0.0027118
699.75	-0.00060567
700.00	0.0021326
