Wavelength (nm)	N08 abs N
220.00	0.43208
220.25	0.43234
220.50	0.43156
220.75	0.43458
221.00	0.43198
221.25	0.44151
221.50	0.44145
221.75	0.43818
222.00	0.43828
222.25	0.43963
222.50	0.44313
222.75	0.44261
223.00	0.43676
223.25	0.44060
223.50	0.43649
223.75	0.43840
224.00	0.43332
224.25	0.43845
224.50	0.43651
224.75	0.43433
225.00	0.43415
225.25	0.43451
225.50	0.43553
225.75	0.43224
226.00	0.43356
226.25	0.42963
226.50	0.42870
226.75	0.42634
227.00	0.42631
227.25	0.42554
227.50	0.42696
227.75	0.42376
228.00	0.41995
228.25	0.41748
228.50	0.41732
228.75	0.41391
229.00	0.41230
229.25	0.41180
229.50	0.41004
229.75	0.40588
230.00	0.40418
230.25	0.40272
230.50	0.40119
230.75	0.39800
231.00	0.39879
231.25	0.39220
231.50	0.38814
231.75	0.38796
232.00	0.38692
232.25	0.38499
232.50	0.38276
232.75	0.38066
233.00	0.37741
233.25	0.37547
233.50	0.37384
233.75	0.37165
234.00	0.36736
234.25	0.36672
234.50	0.36331
234.75	0.36290
235.00	0.35988
235.25	0.35887
235.50	0.35523
235.75	0.35171
236.00	0.35203
236.25	0.34685
236.50	0.34489
236.75	0.34291
237.00	0.34253
237.25	0.34053
237.50	0.33809
237.75	0.33749
238.00	0.33418
238.25	0.33429
238.50	0.33160
238.75	0.32978
239.00	0.32931
239.25	0.32411
239.50	0.32250
239.75	0.32112
240.00	0.31887
240.25	0.31817
240.50	0.31521
240.75	0.31503
241.00	0.31451
241.25	0.31086
241.50	0.31001
241.75	0.30763
242.00	0.30490
242.25	0.30141
242.50	0.30141
242.75	0.29868
243.00	0.29583
243.25	0.29701
243.50	0.29705
243.75	0.29713
244.00	0.29382
244.25	0.29227
244.50	0.28849
244.75	0.29063
245.00	0.28570
245.25	0.28512
245.50	0.28393
245.75	0.28457
246.00	0.28267
246.25	0.28069
246.50	0.28040
246.75	0.27937
247.00	0.27807
247.25	0.27598
247.50	0.27503
247.75	0.27401
248.00	0.27578
248.25	0.27471
248.50	0.27269
248.75	0.27150
249.00	0.27041
249.25	0.26919
249.50	0.26805
249.75	0.26720
250.00	0.26653
250.25	0.26490
250.50	0.26151
250.75	0.26237
251.00	0.26023
251.25	0.25972
251.50	0.25947
251.75	0.25689
252.00	0.25870
252.25	0.25598
252.50	0.25479
252.75	0.25456
253.00	0.25365
253.25	0.25152
253.50	0.24948
253.75	0.24948
254.00	0.25023
254.25	0.24772
254.50	0.25014
254.75	0.25167
255.00	0.24821
255.25	0.24872
255.50	0.24798
255.75	0.24631
256.00	0.24517
256.25	0.24678
256.50	0.24712
256.75	0.24512
257.00	0.24672
257.25	0.24564
257.50	0.24531
257.75	0.24531
258.00	0.24416
258.25	0.24308
258.50	0.24454
258.75	0.24501
259.00	0.24384
259.25	0.24635
259.50	0.24528
259.75	0.24577
260.00	0.24315
260.25	0.24286
260.50	0.24273
260.75	0.24425
261.00	0.24355
261.25	0.24361
261.50	0.24391
261.75	0.24252
262.00	0.24341
262.25	0.24232
262.50	0.24327
262.75	0.24282
263.00	0.24366
263.25	0.24436
263.50	0.24488
263.75	0.24483
264.00	0.24515
264.25	0.24363
264.50	0.24173
264.75	0.24181
265.00	0.24307
265.25	0.24446
265.50	0.24453
265.75	0.24538
266.00	0.24543
266.25	0.24448
266.50	0.24462
266.75	0.24278
267.00	0.24559
267.25	0.24319
267.50	0.24419
267.75	0.24210
268.00	0.24427
268.25	0.24069
268.50	0.24114
268.75	0.24055
269.00	0.23910
269.25	0.23752
269.50	0.23471
269.75	0.23440
270.00	0.23207
270.25	0.23021
270.50	0.22752
270.75	0.22424
271.00	0.22332
271.25	0.22023
271.50	0.21745
271.75	0.21623
272.00	0.21230
272.25	0.20908
272.50	0.20551
272.75	0.20128
273.00	0.19786
273.25	0.19569
273.50	0.19177
273.75	0.18940
274.00	0.18376
274.25	0.18370
274.50	0.18152
274.75	0.17708
275.00	0.17223
275.25	0.16683
275.50	0.16202
275.75	0.15995
276.00	0.15564
276.25	0.15299
276.50	0.15167
276.75	0.14821
277.00	0.14482
277.25	0.14277
277.50	0.13849
277.75	0.13619
278.00	0.13357
278.25	0.13122
278.50	0.12847
278.75	0.12562
279.00	0.12251
279.25	0.12069
279.50	0.11906
279.75	0.11659
280.00	0.11429
280.25	0.11265
280.50	0.11013
280.75	0.10794
281.00	0.10647
281.25	0.10491
281.50	0.10186
281.75	0.10236
282.00	0.099509
282.25	0.098673
282.50	0.097795
282.75	0.096438
283.00	0.094980
283.25	0.094203
283.50	0.091045
283.75	0.089806
284.00	0.087531
284.25	0.087512
284.50	0.086870
284.75	0.084334
285.00	0.084164
285.25	0.084641
285.50	0.080910
285.75	0.081791
286.00	0.080863
286.25	0.078774
286.50	0.076550
286.75	0.076085
287.00	0.077984
287.25	0.075566
287.50	0.075900
287.75	0.075334
288.00	0.073691
288.25	0.073150
288.50	0.071582
288.75	0.069232
289.00	0.069684
289.25	0.069311
289.50	0.068433
289.75	0.069339
290.00	0.070751
290.25	0.069191
290.50	0.068583
290.75	0.067234
291.00	0.067198
291.25	0.067532
291.50	0.067336
291.75	0.067317
292.00	0.066035
292.25	0.065502
292.50	0.065761
292.75	0.064244
293.00	0.066176
293.25	0.063161
293.50	0.065086
293.75	0.065411
294.00	0.065022
294.25	0.065348
294.50	0.064419
294.75	0.064846
295.00	0.063985
295.25	0.064790
295.50	0.065015
295.75	0.065644
296.00	0.065835
296.25	0.067305
296.50	0.065207
296.75	0.065045
297.00	0.064260
297.25	0.065460
297.50	0.064280
297.75	0.065228
298.00	0.065032
298.25	0.068278
298.50	0.068729
298.75	0.066371
299.00	0.067370
299.25	0.064674
299.50	0.065648
299.75	0.066445
300.00	0.067065
300.25	0.065733
300.50	0.068692
300.75	0.068631
301.00	0.068233
301.25	0.069467
301.50	0.069768
301.75	0.067476
302.00	0.068778
302.25	0.068010
302.50	0.068041
302.75	0.069267
303.00	0.070897
303.25	0.069750
303.50	0.073307
303.75	0.070755
304.00	0.070079
304.25	0.069992
304.50	0.071892
304.75	0.071359
305.00	0.070136
305.25	0.074072
305.50	0.074953
305.75	0.073570
306.00	0.073837
306.25	0.073666
306.50	0.075498
306.75	0.074764
307.00	0.076006
307.25	0.075238
307.50	0.074318
307.75	0.076908
308.00	0.075340
308.25	0.076903
308.50	0.077397
308.75	0.078278
309.00	0.078729
309.25	0.077885
309.50	0.079355
309.75	0.083830
310.00	0.075791
310.25	0.075031
310.50	0.078815
310.75	0.080630
311.00	0.080215
311.25	0.082401
311.50	0.083349
311.75	0.079173
312.00	0.084396
312.25	0.088222
312.50	0.079578
312.75	0.076142
313.00	0.090486
313.25	0.085704
313.50	0.079803
313.75	0.080019
314.00	0.086732
314.25	0.087293
314.50	0.084547
314.75	0.088508
315.00	0.085098
315.25	0.083715
315.50	0.085581
315.75	0.090501
316.00	0.087048
316.25	0.085994
316.50	0.089340
316.75	0.090802
317.00	0.091052
317.25	0.088146
317.50	0.090895
317.75	0.084245
318.00	0.095013
318.25	0.092512
318.50	0.090767
318.75	0.095864
319.00	0.087043
319.25	0.089136
319.50	0.089470
319.75	0.095013
320.00	0.091998
320.25	0.091187
320.50	0.090141
320.75	0.092142
321.00	0.090481
321.25	0.087609
321.50	0.088987
321.75	0.094479
322.00	0.086878
322.25	0.093447
322.50	0.088430
322.75	0.085432
323.00	0.092001
323.25	0.091797
323.50	0.096910
323.75	0.092549
324.00	0.088322
324.25	0.089102
324.50	0.090219
324.75	0.084200
325.00	0.090188
325.25	0.089000
325.50	0.085648
325.75	0.083584
326.00	0.086813
326.25	0.087609
326.50	0.085562
326.75	0.087386
327.00	0.087644
327.25	0.089198
327.50	0.088043
327.75	0.086181
328.00	0.084344
328.25	0.086765
328.50	0.083783
328.75	0.080878
329.00	0.078275
329.25	0.078752
329.50	0.082477
329.75	0.084932
330.00	0.081387
330.25	0.078447
330.50	0.080608
330.75	0.081127
331.00	0.072987
331.25	0.075534
331.50	0.074244
331.75	0.076211
332.00	0.077227
332.25	0.076214
332.50	0.072795
332.75	0.074442
333.00	0.071107
333.25	0.072695
333.50	0.071632
333.75	0.074095
334.00	0.067235
334.25	0.067779
334.50	0.071025
334.75	0.075238
335.00	0.064271
335.25	0.066667
335.50	0.059882
335.75	0.065644
336.00	0.070219
336.25	0.063123
336.50	0.064812
336.75	0.065549
337.00	0.062619
337.25	0.060058
337.50	0.059441
337.75	0.057007
338.00	0.060850
338.25	0.060410
338.50	0.055493
338.75	0.055524
339.00	0.059830
339.25	0.059735
339.50	0.056291
339.75	0.055060
340.00	0.054990
340.25	0.051722
340.50	0.050533
340.75	0.052088
341.00	0.048904
341.25	0.051367
341.50	0.051575
341.75	0.049452
342.00	0.051604
342.25	0.045862
342.50	0.050135
342.75	0.047431
343.00	0.046091
343.25	0.044397
343.50	0.045488
343.75	0.043828
344.00	0.043102
344.25	0.042232
344.50	0.045360
344.75	0.044339
345.00	0.039978
345.25	0.041675
345.50	0.043154
345.75	0.041250
346.00	0.040271
346.25	0.040403
346.50	0.043640
346.75	0.040028
347.00	0.038182
347.25	0.039863
347.50	0.037580
347.75	0.040422
348.00	0.037457
348.25	0.037488
348.50	0.040406
348.75	0.037895
349.00	0.038617
349.25	0.037226
349.50	0.037131
349.75	0.037810
350.00	0.037344
350.25	0.037174
350.50	0.035151
350.75	0.037774
351.00	0.037503
351.25	0.035422
351.50	0.035663
351.75	0.033422
352.00	0.034556
352.25	0.033114
352.50	0.034180
352.75	0.033160
353.00	0.033485
353.25	0.036697
353.50	0.037301
353.75	0.031189
354.00	0.033475
354.25	0.031091
354.50	0.035835
354.75	0.033602
355.00	0.033019
355.25	0.030938
355.50	0.029270
355.75	0.027710
356.00	0.027969
356.25	0.029388
356.50	0.030168
356.75	0.028828
357.00	0.028960
357.25	0.030573
357.50	0.030057
357.75	0.029853
358.00	0.030170
358.25	0.028190
358.50	0.028541
358.75	0.028286
359.00	0.028561
359.25	0.023830
359.50	0.027109
359.75	0.025449
360.00	0.023275
360.25	0.024753
360.50	0.024086
360.75	0.021988
361.00	0.023408
361.25	0.025804
361.50	0.021501
361.75	0.024410
362.00	0.021622
362.25	0.021754
362.50	0.021693
362.75	0.019057
363.00	0.018507
363.25	0.020491
363.50	0.019554
363.75	0.016716
364.00	0.018278
364.25	0.019656
364.50	0.017962
364.75	0.016992
365.00	0.012285
365.25	0.014403
365.50	0.016176
365.75	0.015105
366.00	0.015776
366.25	0.018382
366.50	0.015165
366.75	0.013471
367.00	0.013258
367.25	0.013693
367.50	0.0097358
367.75	0.011433
368.00	0.011355
368.25	0.011420
368.50	0.010887
368.75	0.012710
369.00	0.011555
369.25	0.0097265
369.50	0.013292
369.75	0.0093933
370.00	0.010039
370.25	0.010836
370.50	0.011700
370.75	0.0073469
371.00	0.0082110
371.25	0.0097568
371.50	0.0077768
371.75	0.0070759
372.00	0.0080158
372.25	0.0096121
372.50	0.0069505
372.75	0.0071499
373.00	0.0073746
373.25	0.0058911
373.50	0.0061326
373.75	0.0095969
374.00	0.0065315
374.25	0.0040214
374.50	0.0047004
374.75	0.0058676
375.00	0.0044345
375.25	0.0063758
375.50	0.0050101
375.75	0.0057901
376.00	0.0069909
376.25	0.0050867
376.50	0.0034096
376.75	0.0046777
377.00	0.0039599
377.25	0.0060106
377.50	0.0019522
377.75	0.0049453
378.00	0.0017031
378.25	0.0048225
378.50	0.00032649
378.75	0.0050446
379.00	0.0037126
379.25	0.0033061
379.50	0.0044480
379.75	0.0042940
380.00	0.0056294
380.25	0.0039776
380.50	0.0057085
380.75	0.0037117
381.00	0.0036839
381.25	0.0033364
381.50	0.0026775
381.75	0.0025909
382.00	0.00057725
382.25	0.0028299
382.50	0.0042494
382.75	0.0040113
383.00	0.0025446
383.25	0.0016501
383.50	0.0032043
383.75	0.0030672
384.00	0.00089364
384.25	0.0031547
384.50	0.0027146
384.75	0.0031496
385.00	0.0023814
385.25	0.0020759
385.50	0.00080276
385.75	0.0015155
386.00	0.0024806
386.25	0.00056799
386.50	0.0027280
386.75	0.0031883
387.00	0.0047257
387.25	0.0038985
387.50	0.0026675
387.75	0.0017057
388.00	0.0024857
388.25	0.00057304
388.50	0.0042141
388.75	0.0020069
389.00	0.0040828
389.25	0.0024647
389.50	0.0032784
389.75	0.0027541
390.00	0.0012959
390.25	0.00028357
390.50	0.0042696
390.75	0.0037538
391.00	0.0048199
391.25	0.0025875
391.50	0.0031404
391.75	0.0029611
392.00	0.0010485
392.25	0.0011637
392.50	0.0042999
392.75	0.0030352
393.00	0.0015601
393.25	0.0031311
393.50	0.0059896
393.75	0.0022930
394.00	0.0050000
394.25	0.0047114
394.50	0.0029418
394.75	0.0048662
395.00	0.0022888
395.25	0.0048023
395.50	0.0028896
395.75	0.0041493
396.00	0.0017654
396.25	0.0068538
396.50	0.0062538
396.75	0.0044926
397.00	0.0077045
397.25	0.0051776
397.50	0.0039297
397.75	0.0060308
398.00	0.0049428
398.25	0.0039642
398.50	0.0053837
398.75	0.0047080
399.00	0.0085931
399.25	0.0054603
399.50	0.0070397
399.75	0.0057834
400.00	0.0045271
400.25	0.0042216
400.50	0.0057001
400.75	0.0030217
401.00	0.0062925
401.25	0.0046659
401.50	0.0046550
401.75	0.0078164
402.00	0.0044480
402.25	0.0052533
402.50	0.0055032
402.75	0.0068470
403.00	0.0070633
403.25	0.0051422
403.50	0.0065197
403.75	0.0063909
404.00	0.0065820
404.25	0.0055781
404.50	0.0063076
404.75	0.0075673
405.00	0.0060502
405.25	0.0070321
405.50	0.0051363
405.75	0.0066316
406.00	0.0066712
406.25	0.0072156
406.50	0.0069606
406.75	0.0067814
407.00	0.0063329
407.25	0.0080722
407.50	0.0078761
407.75	0.0067629
408.00	0.0067856
408.25	0.0066484
408.50	0.0082784
408.75	0.0068622
409.00	0.0072635
409.25	0.0072863
409.50	0.0087563
409.75	0.0092250
410.00	0.0082716
410.25	0.010003
410.50	0.0097223
410.75	0.0083482
411.00	0.0046264
411.25	0.0091846
411.50	0.0085510
411.75	0.0087841
412.00	0.010027
412.25	0.0075841
412.50	0.0090458
412.75	0.0074445
413.00	0.0084012
413.25	0.010578
413.50	0.0082784
413.75	0.010026
414.00	0.0094934
414.25	0.010501
414.50	0.0087647
414.75	0.010109
415.00	0.010602
415.25	0.0083701
415.50	0.011691
415.75	0.0094758
416.00	0.011232
416.25	0.010077
416.50	0.010554
416.75	0.010644
417.00	0.010162
417.25	0.010521
417.50	0.010056
417.75	0.0098174
418.00	0.012550
418.25	0.010856
418.50	0.0095742
418.75	0.010657
419.00	0.010537
419.25	0.012461
419.50	0.010094
419.75	0.010748
420.00	0.012546
420.25	0.013175
420.50	0.012524
420.75	0.011436
421.00	0.011913
421.25	0.012458
421.50	0.011664
421.75	0.011006
422.00	0.0090256
422.25	0.011733
422.50	0.0095338
422.75	0.011349
423.00	0.011414
423.25	0.013363
423.50	0.011518
423.75	0.010329
424.00	0.011370
424.25	0.011771
424.50	0.012206
424.75	0.010395
425.00	0.011595
425.25	0.0099015
425.50	0.010446
425.75	0.013203
426.00	0.0097173
426.25	0.011162
426.50	0.010747
426.75	0.010097
427.00	0.011087
427.25	0.010908
427.50	0.012428
427.75	0.012838
428.00	0.011043
428.25	0.0098713
428.50	0.010449
428.75	0.011877
429.00	0.0097375
429.25	0.0097602
429.50	0.011382
429.75	0.013500
430.00	0.013034
430.25	0.0097501
430.50	0.012676
430.75	0.012741
431.00	0.011846
431.25	0.011608
431.50	0.010916
431.75	0.010921
432.00	0.012173
432.25	0.0093428
432.50	0.012353
432.75	0.011786
433.00	0.010050
433.25	0.010730
433.50	0.010778
433.75	0.012769
434.00	0.010385
434.25	0.011620
434.50	0.0086217
434.75	0.010731
435.00	0.010173
435.25	0.010137
435.50	0.0088304
435.75	0.013271
436.00	0.011013
436.25	0.010783
436.50	0.010402
436.75	0.013715
437.00	0.010641
437.25	0.010799
437.50	0.011579
437.75	0.010625
438.00	0.011254
438.25	0.012211
438.50	0.011409
438.75	0.011053
439.00	0.010857
439.25	0.011553
439.50	0.010877
439.75	0.010975
440.00	0.010636
440.25	0.010356
440.50	0.010295
440.75	0.012429
441.00	0.010895
441.25	0.013888
441.50	0.011850
441.75	0.010804
442.00	0.011525
442.25	0.011463
442.50	0.010544
442.75	0.011088
443.00	0.010446
443.25	0.013161
443.50	0.010895
443.75	0.010851
444.00	0.011547
444.25	0.010602
444.50	0.012610
444.75	0.011800
445.00	0.011755
445.25	0.012115
445.50	0.010581
445.75	0.012185
446.00	0.011695
446.25	0.011457
446.50	0.010857
446.75	0.011115
447.00	0.011331
447.25	0.012254
447.50	0.012925
447.75	0.012788
448.00	0.011624
448.25	0.011958
448.50	0.012503
448.75	0.013308
449.00	0.012472
449.25	0.013639
449.50	0.013157
449.75	0.011430
450.00	0.011284
450.25	0.013242
450.50	0.012087
450.75	0.011453
451.00	0.012014
451.25	0.012214
451.50	0.012733
451.75	0.013623
452.00	0.013325
452.25	0.012970
452.50	0.013186
452.75	0.013596
453.00	0.012120
453.25	0.011504
453.50	0.011762
453.75	0.013207
454.00	0.012430
454.25	0.013530
454.50	0.013620
454.75	0.011884
455.00	0.013354
455.25	0.012594
455.50	0.012449
455.75	0.014011
456.00	0.012444
456.25	0.014654
456.50	0.013398
456.75	0.011906
457.00	0.014470
457.25	0.014114
457.50	0.013447
457.75	0.014092
458.00	0.014493
458.25	0.013422
458.50	0.014152
458.75	0.012172
459.00	0.016048
459.25	0.014573
459.50	0.014411
459.75	0.013256
460.00	0.014928
460.25	0.014319
460.50	0.013795
460.75	0.014878
461.00	0.014808
461.25	0.015630
461.50	0.015266
461.75	0.016744
462.00	0.017137
462.25	0.016798
462.50	0.014608
462.75	0.016751
463.00	0.017312
463.25	0.017285
463.50	0.016634
463.75	0.018500
464.00	0.018371
464.25	0.017519
464.50	0.018736
464.75	0.016983
465.00	0.019547
465.25	0.019351
465.50	0.020022
465.75	0.017722
466.00	0.018973
466.25	0.020031
466.50	0.020904
466.75	0.020093
467.00	0.021774
467.25	0.020088
467.50	0.021020
467.75	0.021556
468.00	0.023278
468.25	0.021298
468.50	0.024165
468.75	0.024424
469.00	0.025406
469.25	0.024132
469.50	0.024761
469.75	0.025549
470.00	0.025177
470.25	0.026798
470.50	0.026207
470.75	0.026936
471.00	0.027110
471.25	0.029413
471.50	0.028519
471.75	0.030292
472.00	0.029313
472.25	0.029631
472.50	0.030276
472.75	0.030871
473.00	0.031861
473.25	0.033424
473.50	0.031402
473.75	0.033579
474.00	0.034148
474.25	0.034567
474.50	0.031855
474.75	0.034031
475.00	0.035123
475.25	0.035162
475.50	0.036927
475.75	0.036655
476.00	0.039749
476.25	0.038569
476.50	0.040569
476.75	0.038833
477.00	0.040370
477.25	0.042067
477.50	0.041998
477.75	0.042248
478.00	0.043617
478.25	0.044001
478.50	0.043006
478.75	0.043113
479.00	0.043657
479.25	0.044159
479.50	0.046008
479.75	0.046771
480.00	0.049074
480.25	0.047641
480.50	0.047420
480.75	0.049311
481.00	0.049788
481.25	0.051283
481.50	0.049026
481.75	0.051135
482.00	0.049828
482.25	0.049430
482.50	0.052718
482.75	0.053128
483.00	0.052402
483.25	0.054200
483.50	0.053238
483.75	0.055726
484.00	0.054058
484.25	0.053180
484.50	0.055769
484.75	0.055480
485.00	0.055310
485.25	0.056510
485.50	0.058847
485.75	0.057221
486.00	0.057866
486.25	0.057645
486.50	0.058997
486.75	0.058271
487.00	0.059143
487.25	0.060504
487.50	0.059273
487.75	0.061593
488.00	0.059874
488.25	0.062816
488.50	0.063840
488.75	0.065235
489.00	0.062969
489.25	0.063564
489.50	0.064983
489.75	0.062927
490.00	0.066114
490.25	0.064227
490.50	0.065671
490.75	0.065046
491.00	0.066154
491.25	0.067751
491.50	0.069902
491.75	0.069319
492.00	0.069325
492.25	0.071813
492.50	0.070902
492.75	0.073180
493.00	0.071781
493.25	0.074134
493.50	0.073610
493.75	0.075879
494.00	0.075885
494.25	0.078483
494.50	0.078144
494.75	0.075953
495.00	0.079771
495.25	0.080417
495.50	0.081710
495.75	0.082179
496.00	0.083093
496.25	0.084143
496.50	0.085579
496.75	0.087032
497.00	0.086163
497.25	0.087263
497.50	0.091568
497.75	0.090716
498.00	0.094668
498.25	0.096492
498.50	0.097348
498.75	0.097816
499.00	0.099202
499.25	0.10216
499.50	0.10281
499.75	0.10385
500.00	0.10745
500.25	0.10965
500.50	0.11024
500.75	0.11238
501.00	0.11439
501.25	0.11471
501.50	0.11904
501.75	0.12102
502.00	0.12153
502.25	0.12626
502.50	0.12951
502.75	0.12838
503.00	0.13066
503.25	0.13182
503.50	0.13627
503.75	0.13901
504.00	0.14074
504.25	0.14357
504.50	0.14835
504.75	0.15083
505.00	0.15192
505.25	0.15245
505.50	0.15686
505.75	0.15924
506.00	0.16309
506.25	0.16807
506.50	0.16983
506.75	0.17240
507.00	0.17681
507.25	0.17653
507.50	0.18225
507.75	0.18648
508.00	0.18721
508.25	0.19105
508.50	0.19276
508.75	0.19525
509.00	0.20034
509.25	0.20288
509.50	0.20543
509.75	0.21077
510.00	0.21522
510.25	0.21526
510.50	0.22038
510.75	0.22250
511.00	0.22349
511.25	0.22759
511.50	0.23244
511.75	0.23568
512.00	0.23872
512.25	0.24219
512.50	0.24674
512.75	0.24948
513.00	0.24954
513.25	0.25332
513.50	0.25481
513.75	0.26018
514.00	0.26010
514.25	0.26150
514.50	0.26845
514.75	0.26924
515.00	0.27235
515.25	0.27497
515.50	0.27629
515.75	0.27755
516.00	0.28202
516.25	0.28222
516.50	0.28275
516.75	0.28518
517.00	0.28687
517.25	0.28890
517.50	0.28842
517.75	0.28941
518.00	0.28905
518.25	0.29314
518.50	0.29174
518.75	0.29281
519.00	0.29249
519.25	0.29249
519.50	0.29519
519.75	0.29234
520.00	0.29321
520.25	0.29215
520.50	0.29455
520.75	0.29111
521.00	0.29149
521.25	0.29138
521.50	0.28960
521.75	0.28914
522.00	0.28996
522.25	0.28985
522.50	0.28722
522.75	0.28909
523.00	0.28803
523.25	0.28442
523.50	0.28590
523.75	0.28595
524.00	0.28345
524.25	0.28057
524.50	0.28068
524.75	0.27989
525.00	0.27956
525.25	0.27856
525.50	0.27535
525.75	0.27628
526.00	0.27360
526.25	0.27482
526.50	0.27395
526.75	0.27272
527.00	0.27291
527.25	0.27022
527.50	0.27074
527.75	0.26834
528.00	0.26734
528.25	0.26775
528.50	0.26817
528.75	0.26584
529.00	0.26724
529.25	0.26668
529.50	0.26846
529.75	0.26591
530.00	0.26691
530.25	0.26630
530.50	0.26730
530.75	0.26706
531.00	0.26578
531.25	0.26789
531.50	0.26727
531.75	0.26866
532.00	0.26969
532.25	0.27165
532.50	0.27261
532.75	0.27348
533.00	0.27665
533.25	0.27628
533.50	0.27645
533.75	0.27911
534.00	0.28210
534.25	0.28354
534.50	0.28502
534.75	0.28576
535.00	0.28870
535.25	0.29283
535.50	0.29237
535.75	0.29720
536.00	0.30043
536.25	0.30189
536.50	0.30614
536.75	0.31055
537.00	0.31195
537.25	0.31671
537.50	0.32113
537.75	0.32459
538.00	0.32867
538.25	0.33501
538.50	0.33982
538.75	0.34430
539.00	0.34796
539.25	0.35431
539.50	0.36037
539.75	0.36457
540.00	0.36998
540.25	0.37661
540.50	0.38276
540.75	0.38938
541.00	0.39613
541.25	0.40003
541.50	0.40913
541.75	0.41308
542.00	0.42014
542.25	0.42788
542.50	0.43519
542.75	0.44169
543.00	0.45095
543.25	0.45926
543.50	0.46684
543.75	0.47298
544.00	0.48232
544.25	0.48978
544.50	0.49935
544.75	0.50870
545.00	0.51670
545.25	0.52560
545.50	0.53550
545.75	0.54316
546.00	0.55320
546.25	0.56168
546.50	0.57026
546.75	0.58148
547.00	0.59061
547.25	0.60296
547.50	0.61151
547.75	0.62284
548.00	0.63120
548.25	0.64048
548.50	0.65211
548.75	0.66420
549.00	0.67254
549.25	0.68352
549.50	0.69511
549.75	0.70583
550.00	0.71591
550.25	0.72757
550.50	0.73739
550.75	0.75062
551.00	0.76155
551.25	0.77209
551.50	0.78378
551.75	0.79517
552.00	0.80576
552.25	0.81490
552.50	0.82697
552.75	0.83568
553.00	0.84937
553.25	0.85820
553.50	0.86787
553.75	0.87701
554.00	0.88576
554.25	0.89622
554.50	0.90748
554.75	0.91392
555.00	0.92162
555.25	0.93291
555.50	0.94386
555.75	0.95132
556.00	0.95957
556.25	0.96629
556.50	0.97342
556.75	0.97761
557.00	0.98172
557.25	0.98528
557.50	0.99055
557.75	0.99425
558.00	0.99360
558.25	0.99541
558.50	0.99789
558.75	0.99967
559.00	1.0000
559.25	0.99679
559.50	0.99960
559.75	0.99678
560.00	0.99427
560.25	0.99102
560.50	0.98818
560.75	0.98219
561.00	0.98281
561.25	0.97358
561.50	0.96870
561.75	0.96273
562.00	0.95333
562.25	0.94677
562.50	0.93863
562.75	0.92910
563.00	0.91998
563.25	0.91107
563.50	0.89853
563.75	0.88840
564.00	0.87649
564.25	0.86628
564.50	0.84884
564.75	0.83913
565.00	0.82619
565.25	0.81209
565.50	0.79883
565.75	0.78549
566.00	0.77002
566.25	0.75359
566.50	0.73768
566.75	0.72449
567.00	0.71025
567.25	0.69180
567.50	0.67789
567.75	0.66401
568.00	0.64642
568.25	0.62916
568.50	0.61361
568.75	0.59963
569.00	0.58371
569.25	0.56855
569.50	0.55399
569.75	0.53190
570.00	0.51807
570.25	0.50339
570.50	0.48651
570.75	0.47242
571.00	0.45834
571.25	0.44283
571.50	0.42993
571.75	0.41681
572.00	0.40011
572.25	0.38822
572.50	0.37614
572.75	0.36348
573.00	0.34834
573.25	0.33955
573.50	0.32541
573.75	0.31516
574.00	0.30831
574.25	0.30267
574.50	0.29512
574.75	0.28386
575.00	0.27338
575.25	0.26363
575.50	0.25390
575.75	0.24458
576.00	0.23338
576.25	0.22519
576.50	0.21778
576.75	0.20830
577.00	0.20058
577.25	0.19157
577.50	0.18520
577.75	0.17643
578.00	0.17062
578.25	0.16283
578.50	0.15623
578.75	0.14963
579.00	0.14216
579.25	0.13798
579.50	0.13040
579.75	0.12583
580.00	0.11951
580.25	0.11692
580.50	0.10866
580.75	0.10516
581.00	0.10113
581.25	0.096218
581.50	0.093674
581.75	0.088395
582.00	0.085052
582.25	0.080884
582.50	0.078635
582.75	0.073054
583.00	0.071158
583.25	0.068446
583.50	0.065624
583.75	0.062180
584.00	0.059763
584.25	0.056277
584.50	0.056400
584.75	0.054353
585.00	0.050858
585.25	0.049594
585.50	0.045527
585.75	0.043261
586.00	0.041037
586.25	0.039940
586.50	0.040106
586.75	0.037470
587.00	0.035843
587.25	0.033114
587.50	0.033692
587.75	0.029802
588.00	0.031003
588.25	0.028720
588.50	0.028373
588.75	0.026216
589.00	0.024606
589.25	0.023998
589.50	0.024323
589.75	0.022672
590.00	0.021054
590.25	0.020883
590.50	0.019837
590.75	0.020785
591.00	0.018637
591.25	0.016303
591.50	0.017083
591.75	0.015684
592.00	0.015841
592.25	0.015637
592.50	0.014280
592.75	0.014917
593.00	0.013004
593.25	0.012463
593.50	0.011947
593.75	0.0099672
594.00	0.011732
594.25	0.012209
594.50	0.010313
594.75	0.010268
595.00	0.0097189
595.25	0.0089170
595.50	0.0067940
595.75	0.0086427
596.00	0.0071508
596.25	0.0091341
596.50	0.0062622
596.75	0.0083633
597.00	0.0076203
597.25	0.0071634
597.50	0.0074722
597.75	0.0078063
598.00	0.0067435
598.25	0.0058995
598.50	0.0073191
598.75	0.0081917
599.00	0.0065651
599.25	0.0050311
599.50	0.0044817
599.75	0.0034105
600.00	0.0019185
600.25	0.0025050
600.50	0.0039835
600.75	0.0050412
601.00	0.0036335
601.25	0.0051540
601.50	0.0053787
601.75	0.0029864
602.00	0.0038337
602.25	0.0025606
602.50	0.0045187
602.75	0.0031109
603.00	0.0050774
603.25	0.0030049
603.50	0.0030697
603.75	0.0019059
604.00	0.0035274
604.25	0.0029948
604.50	0.0038506
604.75	0.0053038
605.00	0.0037529
605.25	0.0029090
605.50	7.0683e-05
605.75	0.0019699
606.00	0.0021441
606.25	0.0025959
606.50	0.0046298
606.75	0.0037605
607.00	0.0047257
607.25	0.00070094
607.50	0.0027516
607.75	0.0022021
608.00	0.0022417
608.25	0.0018437
608.50	0.0038270
608.75	0.0031765
609.00	0.0020969
609.25	0.0039709
609.50	0.0015870
609.75	0.00084399
610.00	0.0034921
610.25	0.0022274
610.50	0.0011478
610.75	0.00069084
611.00	0.0033810
611.25	0.0019312
611.50	0.0046802
611.75	8.3305e-05
612.00	0.0028576
612.25	0.0026616
612.50	0.0022888
612.75	0.00033406
613.00	0.00086166
613.25	0.0020204
613.50	0.0012353
613.75	0.0015862
614.00	0.0019960
614.25	0.0018925
614.50	0.0028913
614.75	0.0028635
615.00	0.0012622
615.25	0.0024377
615.50	0.0033272
615.75	0.0015828
616.00	0.00067991
616.25	0.00015567
616.50	0.0040912
616.75	0.0039036
617.00	0.0033625
617.25	-0.00066223
617.50	0.0027348
617.75	0.0013186
618.00	0.0017031
618.25	0.0020624
618.50	-0.00017839
618.75	0.0024024
619.00	0.0034601
619.25	0.0025151
619.50	0.0014355
619.75	0.0020978
620.00	0.0030125
620.25	0.0012597
620.50	0.0014170
620.75	0.0023065
621.00	0.0024217
621.25	0.0022930
621.50	0.00073376
621.75	0.0010257
622.00	0.0019236
622.25	0.0022913
622.50	0.00094244
622.75	0.0022947
623.00	0.0015012
623.25	0.0021382
623.50	0.0020852
623.75	0.0031092
624.00	-0.00046112
624.25	0.00043672
624.50	0.0036907
624.75	0.00030545
625.00	0.0030125
625.25	0.0025387
625.50	0.0020565
625.75	0.0010443
626.00	0.0022871
626.25	0.00077836
626.50	0.0026271
626.75	0.0017326
627.00	0.0025799
627.25	0.00077667
627.50	0.0019690
627.75	0.0028585
628.00	0.0012992
628.25	0.0024663
628.50	0.00041064
628.75	0.0013506
629.00	0.0024756
629.25	0.0019934
629.50	0.00068664
629.75	-0.00014053
630.00	-0.00019354
630.25	5.6378e-05
630.50	0.0025025
630.75	0.0029376
631.00	0.0019000
631.25	0.0016703
631.50	0.0024251
631.75	0.0010847
632.00	0.00098115
632.25	0.0013825
632.50	0.00062269
632.75	0.00035089
633.00	0.0011141
633.25	0.0031227
633.50	0.0025480
633.75	0.00083726
634.00	0.0012471
634.25	0.00089953
634.50	0.0014776
634.75	0.0011890
635.00	0.00016829
635.25	0.0022526
635.50	0.0025446
635.75	0.0034929
636.00	0.00099125
636.25	0.0019648
636.50	0.00064961
636.75	0.0023216
637.00	0.0012168
637.25	0.00080192
637.50	0.0016577
637.75	0.0015205
638.00	0.0021154
638.25	0.0020877
638.50	0.0010838
638.75	-0.00050067
639.00	0.0011377
639.25	0.0014801
639.50	0.0028324
639.75	0.0020052
640.00	0.0011444
640.25	-0.00028021
640.50	0.0019640
640.75	0.00074975
641.00	0.0014204
641.25	0.0017881
641.50	0.0013060
641.75	0.0027255
642.00	0.0025884
642.25	0.0015761
642.50	0.0015315
642.75	0.0014364
643.00	0.00082800
643.25	0.0022391
643.50	0.0024470
643.75	0.0031681
644.00	0.0020801
644.25	-4.2915e-05
644.50	0.00076237
644.75	0.0014414
645.00	0.00047964
645.25	0.0033549
645.50	0.0032262
645.75	0.0013051
646.00	0.0021693
646.25	0.0030251
646.50	0.0014322
646.75	0.0014970
647.00	0.0012420
647.25	0.0017528
647.50	0.0015735
647.75	0.0036242
648.00	0.0025867
648.25	0.0022307
648.50	0.00041064
648.75	0.0023687
649.00	0.0014238
649.25	0.0017747
649.50	0.0023359
649.75	0.0036040
650.00	0.0011444
650.25	0.0020675
650.50	0.0013581
650.75	0.0023065
651.00	-0.00049815
651.25	0.0025791
651.50	0.0016005
651.75	0.0026161
652.00	0.00067822
652.25	0.0011806
652.50	0.00014305
652.75	0.0022526
653.00	0.0032767
653.25	0.0025757
653.50	0.0029435
653.75	0.0020490
654.00	0.0024335
654.25	0.0034071
654.50	0.0021003
654.75	0.0013573
655.00	0.0013127
655.25	0.0013607
655.50	0.0026540
655.75	0.0015660
656.00	0.0024049
656.25	0.0029241
656.50	0.0035948
656.75	0.0028686
657.00	0.00024066
657.25	0.0017949
657.50	0.0026422
657.75	0.0018319
658.00	0.0013161
658.25	0.0014061
658.50	0.0018495
658.75	0.0028736
659.00	0.00040559
659.25	-0.00079182
659.50	0.0021340
659.75	0.0021146
660.00	0.0013800
660.25	0.0022189
660.50	0.0013497
660.75	0.0013556
661.00	0.0025059
661.25	0.0016535
661.50	0.0013817
661.75	0.00095843
662.00	0.0025547
662.25	0.00054106
662.50	0.0018344
662.75	0.0012344
663.00	0.0024689
663.25	-0.00082380
663.50	0.0022366
663.75	0.0012580
664.00	0.0019539
664.25	0.0027844
664.50	0.00050151
664.75	0.0013405
665.00	0.0018092
665.25	0.0023031
665.50	0.0013918
665.75	0.0014061
666.00	0.0032127
666.25	0.0013758
666.50	0.0016762
666.75	0.0018504
667.00	0.0012504
667.25	-0.00014053
667.50	0.0021205
667.75	0.0014869
668.00	0.0023006
668.25	0.0018016
668.50	0.0026994
668.75	0.0017629
669.00	0.00079266
669.25	0.0011351
669.50	0.00051834
669.75	0.0013657
670.00	0.0011612
670.25	0.0011755
670.50	0.0011225
670.75	0.0018689
671.00	0.0026994
671.25	0.0023351
671.50	0.00065803
671.75	0.00010855
672.00	0.0012588
672.25	-0.0010914
672.50	0.0018428
672.75	0.00080528
673.00	0.00093739
673.25	0.0029712
673.50	0.0022703
673.75	-5.4695e-05
674.00	0.0026944
674.25	0.0018840
674.50	0.0033036
674.75	-9.8452e-05
675.00	0.0010434
675.25	0.0011250
675.50	0.00012959
675.75	0.0022980
676.00	0.0017149
676.25	7.9939e-05
676.50	0.0019118
676.75	0.0015727
677.00	0.0011326
677.25	0.0015508
677.50	0.0013043
677.75	0.00043504
678.00	0.0010468
678.25	2.6085e-05
678.50	0.0013783
678.75	0.0014095
679.00	0.0014406
679.25	0.0025993
679.50	0.0012841
679.75	0.0024596
680.00	0.00084988
680.25	0.0017646
680.50	0.0013245
680.75	0.0021045
681.00	0.0020094
681.25	0.0016198
681.50	0.0032161
681.75	0.0012193
682.00	0.0029670
682.25	0.0014498
682.50	0.0011444
682.75	0.00077163
683.00	0.0026876
683.25	0.0031732
683.50	0.0010081
683.75	0.0015862
684.00	0.0035695
684.25	0.0020608
684.50	0.00083810
684.75	0.0026447
685.00	0.00093403
685.25	0.0019413
685.50	0.0023763
685.75	0.0031311
686.00	0.0033137
686.25	0.0012159
686.50	0.0021643
686.75	0.00025160
687.00	0.0014103
687.25	0.0024680
687.50	0.0019354
687.75	0.0032708
688.00	0.0027802
688.25	0.0027693
688.50	0.0017654
688.75	0.0023351
689.00	0.0014406
689.25	0.0012361
689.50	0.0025210
689.75	0.0019295
690.00	0.0035762
690.25	0.0033213
690.50	0.0030495
690.75	0.0017932
691.00	0.0032716
691.25	0.0034963
691.50	0.0019286
691.75	0.0021786
692.00	0.0012504
692.25	0.00012875
692.50	0.0014305
692.75	0.0038430
693.00	0.0013497
693.25	0.0018352
693.50	0.0036250
693.75	0.0025623
694.00	0.0014322
694.25	0.0012866
694.50	0.0017301
694.75	0.0022913
695.00	0.0019354
695.25	0.00057809
695.50	0.00020532
695.75	0.0014229
696.00	0.0020263
696.25	0.0028652
696.50	0.0020549
696.75	0.0017915
697.00	0.0014776
697.25	0.00076826
697.50	0.0014642
697.75	0.0029931
698.00	0.0040424
698.25	0.0022560
698.50	0.0019337
698.75	0.0016535
699.00	0.0018866
699.25	0.0013034
699.50	-0.0012487
699.75	0.0018201
700.00	0.0033827
