Wavelength (nm)	N10 abs N
220.00	0.22738
220.25	0.22757
220.50	0.22978
220.75	0.22679
221.00	0.22964
221.25	0.22858
221.50	0.22789
221.75	0.22864
222.00	0.22947
222.25	0.22836
222.50	0.23069
222.75	0.22836
223.00	0.22903
223.25	0.22993
223.50	0.23079
223.75	0.22954
224.00	0.22979
224.25	0.22948
224.50	0.23141
224.75	0.23218
225.00	0.23104
225.25	0.23114
225.50	0.23208
225.75	0.23072
226.00	0.23039
226.25	0.23226
226.50	0.23306
226.75	0.23319
227.00	0.23302
227.25	0.23390
227.50	0.23624
227.75	0.23274
228.00	0.23569
228.25	0.23586
228.50	0.23578
228.75	0.23608
229.00	0.23638
229.25	0.23578
229.50	0.23839
229.75	0.23714
230.00	0.23777
230.25	0.23952
230.50	0.24001
230.75	0.24128
231.00	0.24244
231.25	0.24201
231.50	0.24322
231.75	0.24138
232.00	0.24278
232.25	0.24478
232.50	0.24470
232.75	0.24667
233.00	0.24553
233.25	0.24587
233.50	0.24816
233.75	0.24801
234.00	0.24881
234.25	0.25093
234.50	0.25232
234.75	0.25186
235.00	0.25356
235.25	0.25366
235.50	0.25605
235.75	0.25781
236.00	0.26049
236.25	0.26352
236.50	0.26488
236.75	0.26779
237.00	0.27029
237.25	0.27484
237.50	0.27575
237.75	0.27874
238.00	0.28221
238.25	0.28514
238.50	0.29003
238.75	0.29328
239.00	0.29705
239.25	0.30181
239.50	0.30656
239.75	0.31085
240.00	0.31510
240.25	0.31838
240.50	0.32156
240.75	0.32858
241.00	0.33122
241.25	0.33433
241.50	0.33892
241.75	0.34323
242.00	0.34628
242.25	0.34794
242.50	0.35375
242.75	0.35550
243.00	0.36038
243.25	0.36157
243.50	0.36325
243.75	0.36631
244.00	0.36836
244.25	0.36939
244.50	0.36911
244.75	0.37299
245.00	0.37240
245.25	0.37285
245.50	0.37061
245.75	0.37166
246.00	0.37217
246.25	0.37102
246.50	0.36868
246.75	0.36392
247.00	0.36369
247.25	0.35924
247.50	0.35478
247.75	0.35073
248.00	0.34672
248.25	0.34032
248.50	0.33271
248.75	0.32738
249.00	0.31979
249.25	0.31159
249.50	0.30575
249.75	0.29707
250.00	0.28963
250.25	0.27993
250.50	0.27138
250.75	0.26369
251.00	0.25594
251.25	0.24556
251.50	0.23870
251.75	0.23056
252.00	0.22194
252.25	0.21528
252.50	0.20714
252.75	0.20014
253.00	0.19488
253.25	0.19026
253.50	0.18395
253.75	0.17999
254.00	0.17409
254.25	0.17033
254.50	0.16554
254.75	0.16189
255.00	0.15910
255.25	0.15638
255.50	0.15329
255.75	0.15069
256.00	0.14703
256.25	0.14583
256.50	0.14113
256.75	0.14004
257.00	0.13808
257.25	0.13646
257.50	0.13258
257.75	0.13241
258.00	0.13192
258.25	0.12934
258.50	0.12785
258.75	0.12830
259.00	0.12808
259.25	0.12766
259.50	0.12802
259.75	0.12677
260.00	0.12752
260.25	0.12708
260.50	0.12902
260.75	0.12939
261.00	0.12847
261.25	0.13003
261.50	0.12912
261.75	0.13028
262.00	0.13029
262.25	0.12970
262.50	0.13126
262.75	0.13058
263.00	0.13295
263.25	0.13337
263.50	0.13494
263.75	0.13536
264.00	0.13536
264.25	0.13547
264.50	0.13476
264.75	0.13891
265.00	0.13745
265.25	0.13840
265.50	0.13841
265.75	0.13918
266.00	0.13829
266.25	0.13909
266.50	0.13818
266.75	0.13835
267.00	0.13812
267.25	0.13784
267.50	0.13675
267.75	0.13551
268.00	0.13513
268.25	0.13354
268.50	0.13273
268.75	0.13220
269.00	0.13153
269.25	0.13045
269.50	0.12948
269.75	0.12730
270.00	0.12640
270.25	0.12468
270.50	0.12413
270.75	0.12329
271.00	0.12230
271.25	0.12132
271.50	0.11782
271.75	0.11588
272.00	0.11646
272.25	0.11450
272.50	0.11343
272.75	0.11252
273.00	0.10949
273.25	0.10950
273.50	0.10759
273.75	0.10660
274.00	0.10528
274.25	0.10405
274.50	0.10197
274.75	0.10135
275.00	0.099519
275.25	0.097279
275.50	0.098005
275.75	0.095643
276.00	0.095131
276.25	0.096293
276.50	0.093861
276.75	0.092286
277.00	0.091285
277.25	0.091323
277.50	0.091514
277.75	0.089205
278.00	0.088433
278.25	0.087355
278.50	0.088356
278.75	0.086965
279.00	0.086300
279.25	0.088005
279.50	0.086407
279.75	0.088677
280.00	0.087102
280.25	0.086888
280.50	0.085520
280.75	0.085902
281.00	0.087286
281.25	0.087638
281.50	0.086307
281.75	0.086544
282.00	0.086789
282.25	0.086078
282.50	0.086957
282.75	0.086429
283.00	0.086330
283.25	0.086361
283.50	0.087156
283.75	0.086705
284.00	0.087141
284.25	0.087997
284.50	0.086414
284.75	0.086468
285.00	0.086200
285.25	0.086751
285.50	0.087607
285.75	0.089633
286.00	0.088922
286.25	0.088677
286.50	0.090528
286.75	0.090757
287.00	0.090681
287.25	0.090084
287.50	0.089740
287.75	0.090306
288.00	0.089511
288.25	0.091797
288.50	0.092875
288.75	0.091124
289.00	0.093204
289.25	0.091690
289.50	0.092638
289.75	0.094970
290.00	0.094458
290.25	0.094244
290.50	0.096216
290.75	0.094374
291.00	0.093617
291.25	0.095031
291.50	0.096277
291.75	0.094993
292.00	0.094894
292.25	0.095329
292.50	0.095918
292.75	0.097019
293.00	0.097524
293.25	0.097287
293.50	0.096721
293.75	0.096897
294.00	0.097264
294.25	0.095368
294.50	0.097417
294.75	0.096904
295.00	0.094144
295.25	0.094221
295.50	0.094786
295.75	0.095513
296.00	0.094458
296.25	0.094939
296.50	0.094481
296.75	0.094037
297.00	0.093349
297.25	0.093135
297.50	0.092569
297.75	0.090298
298.00	0.089863
298.25	0.088219
298.50	0.087966
298.75	0.086819
299.00	0.085122
299.25	0.085803
299.50	0.082928
299.75	0.081368
300.00	0.080473
300.25	0.080290
300.50	0.078936
300.75	0.077736
301.00	0.075381
301.25	0.074861
301.50	0.071856
301.75	0.071229
302.00	0.068966
302.25	0.069586
302.50	0.067636
302.75	0.065594
303.00	0.065426
303.25	0.062903
303.50	0.061810
303.75	0.062062
304.00	0.059684
304.25	0.059386
304.50	0.057039
304.75	0.057910
305.00	0.055372
305.25	0.054194
305.50	0.053307
305.75	0.051625
306.00	0.050295
306.25	0.049691
306.50	0.049798
306.75	0.050127
307.00	0.046625
307.25	0.045891
307.50	0.045233
307.75	0.044209
308.00	0.045340
308.25	0.042527
308.50	0.041609
308.75	0.041494
309.00	0.040332
309.25	0.039468
309.50	0.039407
309.75	0.039239
310.00	0.040271
310.25	0.037113
310.50	0.042794
310.75	0.036731
311.00	0.046640
311.25	0.039659
311.50	0.036081
311.75	0.035492
312.00	0.038849
312.25	0.028030
312.50	0.032732
312.75	0.034307
313.00	0.033634
313.25	0.039269
313.50	0.036502
313.75	0.039484
314.00	0.036165
314.25	0.033902
314.50	0.032732
314.75	0.032992
315.00	0.034093
315.25	0.035661
315.50	0.035821
315.75	0.031356
316.00	0.031677
316.25	0.030094
316.50	0.030630
316.75	0.032075
317.00	0.031991
317.25	0.033229
317.50	0.032342
317.75	0.023397
318.00	0.037488
318.25	0.032266
318.50	0.029383
318.75	0.030912
319.00	0.032312
319.25	0.036639
319.50	0.036127
319.75	0.032510
320.00	0.032679
320.25	0.027900
320.50	0.028817
320.75	0.033160
321.00	0.030117
321.25	0.032319
321.50	0.030698
321.75	0.032556
322.00	0.032052
322.25	0.036096
322.50	0.028061
322.75	0.033481
323.00	0.026852
323.25	0.037649
323.50	0.039560
323.75	0.036769
324.00	0.036853
324.25	0.038023
324.50	0.039789
324.75	0.041020
325.00	0.042175
325.25	0.046281
325.50	0.040646
325.75	0.044239
326.00	0.040737
326.25	0.041640
326.50	0.041043
326.75	0.044446
327.00	0.049729
327.25	0.052329
327.50	0.053521
327.75	0.048047
328.00	0.051901
328.25	0.056565
328.50	0.059653
328.75	0.059845
329.00	0.058575
329.25	0.055861
329.50	0.064157
329.75	0.060770
330.00	0.063117
330.25	0.063981
330.50	0.067299
330.75	0.068997
331.00	0.067292
331.25	0.066879
331.50	0.067009
331.75	0.072300
332.00	0.072705
332.25	0.076903
332.50	0.072109
332.75	0.067858
333.00	0.070128
333.25	0.064944
333.50	0.071130
333.75	0.071543
334.00	0.068416
334.25	0.065036
334.50	0.064348
334.75	0.061282
335.00	0.061580
335.25	0.061297
335.50	0.060242
335.75	0.061978
336.00	0.058185
336.25	0.059998
336.50	0.053361
336.75	0.049668
337.00	0.054760
337.25	0.051526
337.50	0.050822
337.75	0.048467
338.00	0.046281
338.25	0.040730
338.50	0.044927
338.75	0.045034
339.00	0.039254
339.25	0.041227
339.50	0.039331
339.75	0.033566
340.00	0.037182
340.25	0.038306
340.50	0.034514
340.75	0.031509
341.00	0.032510
341.25	0.026646
341.50	0.029299
341.75	0.028191
342.00	0.026799
342.25	0.025874
342.50	0.022617
342.75	0.022334
343.00	0.024406
343.25	0.022533
343.50	0.020843
343.75	0.019512
344.00	0.019077
344.25	0.016240
344.50	0.014435
344.75	0.013831
345.00	0.017800
345.25	0.012830
345.50	0.011048
345.75	0.015613
346.00	0.011316
346.25	0.011262
346.50	0.015200
346.75	0.0094351
347.00	0.0099779
347.25	0.0087775
347.50	0.010918
347.75	0.0079441
348.00	0.0086322
348.25	0.010314
348.50	0.0060250
348.75	0.0091445
349.00	0.0047558
349.25	0.0040676
349.50	0.0087087
349.75	0.0047405
350.00	0.0076994
350.25	0.0059944
350.50	0.0044117
350.75	0.0014910
351.00	0.0026684
351.25	0.0053445
351.50	0.0036930
351.75	0.00097868
352.00	0.0028366
352.25	0.0052680
352.50	0.0013075
352.75	0.0039300
353.00	0.0034865
353.25	-0.00023702
353.50	0.00056580
353.75	0.0019879
354.00	0.00089457
354.25	0.00086399
354.50	-0.00071107
354.75	0.00055815
355.00	0.0018121
355.25	0.00077988
355.50	0.0030278
355.75	0.0016561
356.00	0.00094274
356.25	0.0015062
356.50	0.0012233
356.75	0.0035936
357.00	0.00072636
357.25	0.0030890
357.50	0.0016790
357.75	0.00089457
358.00	0.00089457
358.25	-0.00032113
358.50	0.0017471
358.75	0.00084870
359.00	0.00054286
359.25	6.8049e-05
359.50	0.0022112
359.75	0.0030278
360.00	0.00095574
360.25	0.0028366
360.50	0.00025232
360.75	0.00079212
361.00	0.0022097
361.25	-0.00073401
361.50	9.9397e-05
361.75	0.0019344
362.00	0.0025996
362.25	-0.00096339
362.50	0.0013916
362.75	0.00087163
363.00	0.0046869
363.25	0.0010169
363.50	0.0059791
363.75	0.00081047
364.00	0.0013533
364.25	0.00039759
364.50	6.8813e-05
364.75	-0.00064226
365.00	0.00074165
365.25	0.0039988
365.50	0.0040218
365.75	0.0019879
366.00	0.0015139
366.25	-0.00045111
366.50	-0.0010169
366.75	0.0016133
367.00	0.0011087
367.25	0.00062697
367.50	0.0022555
367.75	0.00057344
368.00	0.0040370
368.25	0.0028825
368.50	0.00043582
368.75	0.0021714
369.00	0.0011010
369.25	0.0015062
369.50	0.0064073
369.75	0.0015674
370.00	0.0032189
370.25	0.0050081
370.50	0.0027143
370.75	0.00073401
371.00	0.0063996
371.25	0.0025232
371.50	0.0050540
371.75	0.0037618
372.00	0.0024085
372.25	0.0020644
372.50	0.0028902
372.75	0.0042053
373.00	0.0017739
373.25	0.0073248
373.50	0.0038459
373.75	0.0058950
374.00	0.0041747
374.25	0.0024696
374.50	0.0019956
374.75	0.0049851
375.00	0.0038383
375.25	0.0060709
375.50	0.0075083
375.75	0.0053063
376.00	0.0070648
376.25	0.0069196
376.50	0.0050998
376.75	0.0058797
377.00	0.0063079
377.25	0.0042970
377.50	0.0058338
377.75	0.0063079
378.00	0.0047787
378.25	0.0029590
378.50	0.0057421
378.75	0.0068966
379.00	0.0069578
379.25	0.0047022
379.50	0.0094121
379.75	0.0070342
380.00	0.0067896
380.25	0.0058721
380.50	0.0061473
380.75	0.0092439
381.00	0.0074777
381.25	0.0063461
381.50	0.0074624
381.75	0.0077683
382.00	0.0081582
382.25	0.0059409
382.50	0.0059409
382.75	0.0053980
383.00	0.0060632
383.25	0.0071642
383.50	0.0070954
383.75	0.0050234
384.00	0.0072101
384.25	0.0098174
384.50	0.0042435
384.75	0.0079288
385.00	0.0050845
385.25	0.0057115
385.50	0.0089687
385.75	0.0056503
386.00	0.0080129
386.25	0.0080664
386.50	0.0074930
386.75	0.0064302
387.00	0.0071336
387.25	0.0065755
387.50	0.0084564
387.75	0.0092057
388.00	0.0083264
388.25	0.0070954
388.50	0.0069578
388.75	0.0059409
389.00	0.0061779
389.25	0.0048857
389.50	0.0076077
389.75	0.0038918
390.00	0.0060250
390.25	0.0071031
390.50	0.0031731
390.75	0.0063691
391.00	0.0049928
391.25	0.0086475
391.50	0.0052298
391.75	0.0035859
392.00	0.0047252
392.25	0.0038765
392.50	0.0050692
392.75	0.0063691
393.00	0.0032495
393.25	0.0062697
393.50	0.0055356
393.75	0.0037924
394.00	0.0063002
394.25	0.0064149
394.50	0.0043735
394.75	0.0053751
395.00	0.0044499
395.25	0.0035630
395.50	0.0057727
395.75	0.0058033
396.00	0.0067513
396.25	0.0045493
396.50	0.0046487
396.75	0.0030431
397.00	0.0045868
397.25	0.0049316
397.50	0.0045646
397.75	0.0022861
398.00	0.0054592
398.25	0.0048552
398.50	0.0064837
398.75	0.0060173
399.00	0.0041900
399.25	0.0036318
399.50	0.0041670
399.75	0.0037541
400.00	0.0042358
400.25	0.0052222
400.50	0.0027908
400.75	0.0056350
401.00	0.0033566
401.25	0.0046717
401.50	0.0036548
401.75	0.0034177
402.00	0.0027449
402.25	0.0033489
402.50	0.0048016
402.75	0.0034865
403.00	0.0042664
403.25	0.0037541
403.50	0.0041670
403.75	0.0025308
404.00	0.0025996
404.25	0.0011622
404.50	0.0039682
404.75	0.0040982
405.00	0.0032419
405.25	0.0040906
405.50	0.0046793
405.75	0.0040294
406.00	0.0042435
406.25	0.0041288
406.50	0.0037618
406.75	0.0022785
407.00	0.0031501
407.25	0.0033719
407.50	0.0048552
407.75	0.0026149
408.00	0.0035324
408.25	0.0042894
408.50	0.0037618
408.75	0.0020491
409.00	0.00099397
409.25	0.0030660
409.50	0.0038918
409.75	0.0022403
410.00	0.0062391
410.25	0.0043964
410.50	0.0020338
410.75	0.0042435
411.00	0.0034483
411.25	0.0053904
411.50	0.0042129
411.75	0.0025537
412.00	0.0028902
412.25	0.0044805
412.50	0.0036471
412.75	0.0031272
413.00	0.0029819
413.25	0.0038383
413.50	0.0029743
413.75	0.0036624
414.00	0.0030584
414.25	0.0036777
414.50	0.0041364
414.75	0.0024467
415.00	0.0032036
415.25	0.0030354
415.50	0.0037159
415.75	0.0045570
416.00	0.0035706
416.25	0.0046105
416.50	0.0039071
416.75	0.0044805
417.00	0.0037083
417.25	0.0035477
417.50	0.0044117
417.75	0.0043123
418.00	0.0042664
418.25	0.0036242
418.50	0.0038153
418.75	0.0032725
419.00	0.0039988
419.25	0.0040676
419.50	0.0047405
419.75	0.0038994
420.00	0.0053139
420.25	0.0051228
420.50	0.0032648
420.75	0.0024620
421.00	0.0053139
421.25	0.0043276
421.50	0.0040294
421.75	0.0059562
422.00	0.0059027
422.25	0.0036242
422.50	0.0045417
422.75	0.0037694
423.00	0.0046411
423.25	0.0057880
423.50	0.0056350
423.75	0.0063155
424.00	0.0071489
424.25	0.0076230
424.50	0.0079823
424.75	0.0064837
425.00	0.0062849
425.25	0.0081658
425.50	0.0066290
425.75	0.0053369
426.00	0.0063920
426.25	0.0065067
426.50	0.0076306
426.75	0.0087852
427.00	0.0085558
427.25	0.0076306
427.50	0.0061091
427.75	0.010376
428.00	0.0097715
428.25	0.0099932
428.50	0.0081276
428.75	0.0098862
429.00	0.0091292
429.25	0.010230
429.50	0.010895
429.75	0.011943
430.00	0.011132
430.25	0.011996
430.50	0.012570
430.75	0.011989
431.00	0.012868
431.25	0.013097
431.50	0.011125
431.75	0.014367
432.00	0.013648
432.25	0.013312
432.50	0.016225
432.75	0.016225
433.00	0.015506
433.25	0.015651
433.50	0.014780
433.75	0.014810
434.00	0.017998
434.25	0.017807
434.50	0.018962
434.75	0.018174
435.00	0.017326
435.25	0.020529
435.50	0.019551
435.75	0.020850
436.00	0.021600
436.25	0.022120
436.50	0.021714
436.75	0.023236
437.00	0.022915
437.25	0.025254
437.50	0.024849
437.75	0.026692
438.00	0.025759
438.25	0.026042
438.50	0.026814
438.75	0.024666
439.00	0.026982
439.25	0.027671
439.50	0.027586
439.75	0.029070
440.00	0.030217
440.25	0.030209
440.50	0.030125
440.75	0.032411
441.00	0.031555
441.25	0.030018
441.50	0.034491
441.75	0.032954
442.00	0.036043
442.25	0.034498
442.50	0.037778
442.75	0.036310
443.00	0.036999
443.25	0.037656
443.50	0.038742
443.75	0.038115
444.00	0.042435
444.25	0.040279
444.50	0.039476
444.75	0.042259
445.00	0.040623
445.25	0.042335
445.50	0.042947
445.75	0.041968
446.00	0.044476
446.25	0.045654
446.50	0.046923
446.75	0.047298
447.00	0.047802
447.25	0.046495
447.50	0.047214
447.75	0.049316
448.00	0.049981
448.25	0.049874
448.50	0.050578
448.75	0.052275
449.00	0.051748
449.25	0.053996
449.50	0.052803
449.75	0.055349
450.00	0.055372
450.25	0.057841
450.50	0.056243
450.75	0.058033
451.00	0.058445
451.25	0.059699
451.50	0.059539
451.75	0.059141
452.00	0.064080
452.25	0.062865
452.50	0.063522
452.75	0.065334
453.00	0.064555
453.25	0.065610
453.50	0.067070
453.75	0.068278
454.00	0.068171
454.25	0.068882
454.50	0.071443
454.75	0.069807
455.00	0.073118
455.25	0.073363
455.50	0.073179
455.75	0.075060
456.00	0.076696
456.25	0.077140
456.50	0.078585
456.75	0.080817
457.00	0.081353
457.25	0.082912
457.50	0.084365
457.75	0.083685
458.00	0.086108
458.25	0.087194
458.50	0.090688
458.75	0.091071
459.00	0.094886
459.25	0.095513
459.50	0.097516
459.75	0.098380
460.00	0.099825
460.25	0.10249
460.50	0.10382
460.75	0.10538
461.00	0.10639
461.25	0.10921
461.50	0.11127
461.75	0.11422
462.00	0.11522
462.25	0.11846
462.50	0.12249
462.75	0.12170
463.00	0.12454
463.25	0.12925
463.50	0.12907
463.75	0.13153
464.00	0.13540
464.25	0.13691
464.50	0.13929
464.75	0.14254
465.00	0.14413
465.25	0.14695
465.50	0.14937
465.75	0.15170
466.00	0.15459
466.25	0.15734
466.50	0.16009
466.75	0.16261
467.00	0.16634
467.25	0.16800
467.50	0.17096
467.75	0.17264
468.00	0.17569
468.25	0.18050
468.50	0.18288
468.75	0.18522
469.00	0.18722
469.25	0.19050
469.50	0.19470
469.75	0.19654
470.00	0.19902
470.25	0.20229
470.50	0.20454
470.75	0.20914
471.00	0.20987
471.25	0.21696
471.50	0.21685
471.75	0.22045
472.00	0.22410
472.25	0.22542
472.50	0.22893
472.75	0.23235
473.00	0.23565
473.25	0.23838
473.50	0.23846
473.75	0.24350
474.00	0.24536
474.25	0.24704
474.50	0.25075
474.75	0.25206
475.00	0.25609
475.25	0.25748
475.50	0.26280
475.75	0.26257
476.00	0.26678
476.25	0.26885
476.50	0.27129
476.75	0.27214
477.00	0.27526
477.25	0.27844
477.50	0.27735
477.75	0.28142
478.00	0.28035
478.25	0.28389
478.50	0.28558
478.75	0.28850
479.00	0.28889
479.25	0.29066
479.50	0.29227
479.75	0.29338
480.00	0.29465
480.25	0.29746
480.50	0.30052
480.75	0.30078
481.00	0.30187
481.25	0.30412
481.50	0.30411
481.75	0.30594
482.00	0.30591
482.25	0.30946
482.50	0.30898
482.75	0.31259
483.00	0.31244
483.25	0.31361
483.50	0.31666
483.75	0.31667
484.00	0.31926
484.25	0.32100
484.50	0.32469
484.75	0.32657
485.00	0.32379
485.25	0.32946
485.50	0.32961
485.75	0.33231
486.00	0.33409
486.25	0.33560
486.50	0.33719
486.75	0.34049
487.00	0.34498
487.25	0.34419
487.50	0.34855
487.75	0.35163
488.00	0.35456
488.25	0.35703
488.50	0.36113
488.75	0.36508
489.00	0.36649
489.25	0.37046
489.50	0.37368
489.75	0.37684
490.00	0.38064
490.25	0.38477
490.50	0.38955
490.75	0.39257
491.00	0.39789
491.25	0.40288
491.50	0.40720
491.75	0.41329
492.00	0.41605
492.25	0.42348
492.50	0.42696
492.75	0.43397
493.00	0.43987
493.25	0.44628
493.50	0.45404
493.75	0.45695
494.00	0.46417
494.25	0.47107
494.50	0.47903
494.75	0.48173
495.00	0.48601
495.25	0.49103
495.50	0.49939
495.75	0.50683
496.00	0.51382
496.25	0.52209
496.50	0.53012
496.75	0.53943
497.00	0.54665
497.25	0.55629
497.50	0.56335
497.75	0.56990
498.00	0.57986
498.25	0.58631
498.50	0.59749
498.75	0.60711
499.00	0.61999
499.25	0.62784
499.50	0.63689
499.75	0.64751
500.00	0.65681
500.25	0.66456
500.50	0.67420
500.75	0.68864
501.00	0.69599
501.25	0.70571
501.50	0.71716
501.75	0.72450
502.00	0.73683
502.25	0.74877
502.50	0.75969
502.75	0.76770
503.00	0.77790
503.25	0.78992
503.50	0.79769
503.75	0.80794
504.00	0.81586
504.25	0.82503
504.50	0.83727
504.75	0.84679
505.00	0.85640
505.25	0.86387
505.50	0.87517
505.75	0.88257
506.00	0.88966
506.25	0.90017
506.50	0.90601
506.75	0.91380
507.00	0.92299
507.25	0.92928
507.50	0.93726
507.75	0.94191
508.00	0.95258
508.25	0.95525
508.50	0.96300
508.75	0.96599
509.00	0.97372
509.25	0.97535
509.50	0.98208
509.75	0.98284
510.00	0.98839
510.25	0.99033
510.50	0.99376
510.75	0.99571
511.00	0.99697
511.25	0.99986
511.50	0.99952
511.75	1.0000
512.00	0.99986
512.25	0.99864
512.50	0.99873
512.75	0.99590
513.00	0.99061
513.25	0.98830
513.50	0.98629
513.75	0.98171
514.00	0.97359
514.25	0.97230
514.50	0.96542
514.75	0.95977
515.00	0.94900
515.25	0.94078
515.50	0.92975
515.75	0.92080
516.00	0.90903
516.25	0.89744
516.50	0.88969
516.75	0.87761
517.00	0.86616
517.25	0.85638
517.50	0.84350
517.75	0.83354
518.00	0.82058
518.25	0.80693
518.50	0.79340
518.75	0.78152
519.00	0.76999
519.25	0.75351
519.50	0.74282
519.75	0.72671
520.00	0.71426
520.25	0.69696
520.50	0.68480
520.75	0.67062
521.00	0.65586
521.25	0.64140
521.50	0.62917
521.75	0.61302
522.00	0.60038
522.25	0.58501
522.50	0.57194
522.75	0.55640
523.00	0.54203
523.25	0.52633
523.50	0.51686
523.75	0.50055
524.00	0.48729
524.25	0.47515
524.50	0.45990
524.75	0.44888
525.00	0.43282
525.25	0.42257
525.50	0.40802
525.75	0.39630
526.00	0.38464
526.25	0.37174
526.50	0.36251
526.75	0.34665
527.00	0.33751
527.25	0.32574
527.50	0.31464
527.75	0.30302
528.00	0.29519
528.25	0.28449
528.50	0.27276
528.75	0.26525
529.00	0.25514
529.25	0.24595
529.50	0.23510
529.75	0.22709
530.00	0.21979
530.25	0.20900
530.50	0.20389
530.75	0.19463
531.00	0.18622
531.25	0.17952
531.50	0.17357
531.75	0.16625
532.00	0.16051
532.25	0.15507
532.50	0.14755
532.75	0.14153
533.00	0.13595
533.25	0.13120
533.50	0.12412
533.75	0.11794
534.00	0.11711
534.25	0.11045
534.50	0.10847
534.75	0.10418
535.00	0.10059
535.25	0.095972
535.50	0.091682
535.75	0.090298
536.00	0.084625
536.25	0.081009
536.50	0.077583
536.75	0.073011
537.00	0.070702
537.25	0.068133
537.50	0.064371
537.75	0.059745
538.00	0.059822
538.25	0.056672
538.50	0.054577
538.75	0.051793
539.00	0.048781
539.25	0.049163
539.50	0.043880
539.75	0.042114
540.00	0.040332
540.25	0.037756
540.50	0.037993
540.75	0.035661
541.00	0.032136
541.25	0.031555
541.50	0.030003
541.75	0.028764
542.00	0.027044
542.25	0.028267
542.50	0.024788
542.75	0.024727
543.00	0.023144
543.25	0.022242
543.50	0.019971
543.75	0.021852
544.00	0.017677
544.25	0.018205
544.50	0.017624
544.75	0.016079
545.00	0.014810
545.25	0.015758
545.50	0.012509
545.75	0.012723
546.00	0.011798
546.25	0.013663
546.50	0.012188
546.75	0.012386
547.00	0.0092133
547.25	0.0088693
547.50	0.011492
547.75	0.0096492
548.00	0.0095956
548.25	0.0084870
548.50	0.0073401
548.75	0.0090298
549.00	0.0077683
549.25	0.0047711
549.50	0.0084105
549.75	0.0049775
550.00	0.0054668
550.25	0.0068202
550.50	0.0041288
550.75	0.0062238
551.00	0.0058644
551.25	0.0057574
551.50	0.0054592
551.75	0.0032342
552.00	0.0060709
552.25	0.0041212
552.50	0.0050540
552.75	0.0025843
553.00	0.0054592
553.25	0.0030966
553.50	0.0026302
553.75	0.0037389
554.00	0.0028902
554.25	0.0036471
554.50	0.0036242
554.75	0.0018427
555.00	0.0011240
555.25	0.0033413
555.50	0.0036548
555.75	0.0020032
556.00	0.0039376
556.25	0.0020109
556.50	0.0020873
556.75	0.0019421
557.00	0.0017280
557.25	0.00045876
557.50	0.0013916
557.75	0.0010398
558.00	0.0036242
558.25	0.0019956
558.50	0.00087928
558.75	0.0024696
559.00	0.0036853
559.25	0.00014527
559.50	0.0037236
559.75	0.00088693
560.00	0.0019268
560.25	0.0030584
560.50	0.00099397
560.75	0.0024161
561.00	0.0021026
561.25	0.0024926
561.50	0.0018885
561.75	0.0029743
562.00	0.00014527
562.25	0.0040523
562.50	0.0015139
562.75	0.00061167
563.00	0.0021332
563.25	0.00097868
563.50	0.0017739
563.75	0.00073401
564.00	0.0010475
564.25	0.0028519
564.50	0.0015445
564.75	0.0035171
565.00	0.00094809
565.25	0.00041288
565.50	0.0010628
565.75	0.0038612
566.00	0.0017433
566.25	0.0022403
566.50	0.0018274
566.75	0.0021332
567.00	0.0040218
567.25	0.0010246
567.50	0.0011622
567.75	0.0035859
568.00	-0.00055815
568.25	0.0020262
568.50	0.00075695
568.75	0.0029284
569.00	0.0017968
569.25	0.0012692
569.50	0.0022785
569.75	0.0012157
570.00	0.00013763
570.25	0.00042053
570.50	-0.00012233
570.75	0.0016897
571.00	0.0030660
571.25	0.0020797
571.50	0.00097103
571.75	0.0011010
572.00	0.0021944
572.25	0.0018427
572.50	0.00089457
572.75	0.0032113
573.00	0.0017127
573.25	0.0013227
573.50	0.00039759
573.75	0.0017815
574.00	0.0012157
574.25	0.0011928
574.50	0.0019191
574.75	0.0027908
575.00	0.0021944
575.25	0.0024238
575.50	0.0026226
575.75	0.0014986
576.00	0.0031654
576.25	0.0014221
576.50	0.0015368
576.75	-0.00018350
577.00	0.0015598
577.25	0.0017280
577.50	0.0024390
577.75	0.0040447
578.00	0.0026761
578.25	0.0017815
578.50	0.0018733
578.75	0.0017815
579.00	0.0033260
579.25	0.0015827
579.50	0.0036471
579.75	0.0032572
580.00	0.00042817
580.25	0.0016209
580.50	0.0017968
580.75	0.0019879
581.00	-0.00025232
581.25	0.0031195
581.50	0.00048934
581.75	0.0018503
582.00	0.0034254
582.25	0.0024926
582.50	0.0016897
582.75	0.0023167
583.00	0.0031501
583.25	0.0011928
583.50	0.0017509
583.75	0.0028978
584.00	0.0025843
584.25	0.0042053
584.50	0.0017586
584.75	0.0013457
585.00	0.0025843
585.25	0.0017662
585.50	0.0037006
585.75	0.00077224
586.00	0.0057115
586.25	0.0029666
586.50	0.0022403
586.75	0.0018350
587.00	0.0031960
587.25	0.0027449
587.50	0.0034024
587.75	0.0029131
588.00	0.0018885
588.25	0.0022479
588.50	0.00041288
588.75	0.0035248
589.00	7.6459e-05
589.25	0.00067284
589.50	0.0033413
589.75	0.0035477
590.00	0.0039453
590.25	-0.00012233
590.50	0.0025461
590.75	0.0019803
591.00	0.0010169
591.25	0.0032113
591.50	0.0017815
591.75	0.0036242
592.00	0.0020185
592.25	0.0014680
592.50	0.0031042
592.75	0.0015827
593.00	0.0034407
593.25	0.0031807
593.50	0.0041517
593.75	0.0016668
594.00	0.0035248
594.25	0.0026761
594.50	0.0017662
594.75	0.0037847
595.00	0.0021103
595.25	0.0037236
595.50	-0.00084105
595.75	0.0029284
596.00	0.0021944
596.25	0.0023549
596.50	0.0029666
596.75	0.0020185
597.00	0.0035630
597.25	0.00082576
597.50	0.0033489
597.75	0.0036624
598.00	0.0019803
598.25	0.0033795
598.50	0.0031425
598.75	0.0038383
599.00	0.00029055
599.25	0.00097103
599.50	0.0022173
599.75	0.0052604
600.00	0.0031425
