Wavelength (nm)	P02 abs N
300.00	0.35123
300.20	0.35294
300.40	0.35431
300.60	0.35597
300.80	0.35705
301.00	0.35863
301.20	0.35997
301.40	0.36146
301.60	0.36265
301.80	0.36452
302.00	0.36490
302.20	0.36600
302.40	0.36694
302.60	0.36866
302.80	0.36989
303.00	0.37019
303.20	0.37141
303.40	0.37260
303.60	0.37311
303.80	0.37452
304.00	0.37539
304.20	0.37611
304.40	0.37744
304.60	0.37779
304.80	0.37832
305.00	0.37948
305.20	0.38002
305.40	0.37983
305.60	0.38197
305.80	0.38316
306.00	0.38290
306.20	0.38361
306.40	0.38480
306.60	0.38484
306.80	0.38520
307.00	0.38612
307.20	0.38641
307.40	0.38703
307.60	0.38684
307.80	0.38796
308.00	0.38771
308.20	0.38822
308.40	0.38904
308.60	0.38859
308.80	0.38893
309.00	0.38845
309.20	0.38876
309.40	0.38904
309.60	0.38850
309.80	0.38871
310.00	0.38834
310.20	0.38871
310.40	0.38902
310.60	0.38850
310.80	0.38788
311.00	0.38739
311.20	0.38696
311.40	0.38650
311.60	0.38599
311.80	0.38548
312.00	0.38466
312.20	0.38517
312.40	0.38453
312.60	0.38307
312.80	0.38221
313.00	0.38266
313.20	0.38055
313.40	0.38036
313.60	0.37962
313.80	0.37798
314.00	0.37805
314.20	0.37704
314.40	0.37516
314.60	0.37476
314.80	0.37425
315.00	0.37274
315.20	0.37195
315.40	0.37053
315.60	0.36825
315.80	0.36808
316.00	0.36725
316.20	0.36630
316.40	0.36424
316.60	0.36277
316.80	0.36148
317.00	0.36072
317.20	0.35897
317.40	0.35742
317.60	0.35666
317.80	0.35381
318.00	0.35325
318.20	0.35227
318.40	0.35056
318.60	0.34848
318.80	0.34707
319.00	0.34513
319.20	0.34390
319.40	0.34216
319.60	0.34021
319.80	0.33867
320.00	0.33763
320.20	0.33627
320.40	0.33368
320.60	0.33214
320.80	0.33086
321.00	0.32816
321.20	0.32673
321.40	0.32464
321.60	0.32314
321.80	0.32186
322.00	0.31944
322.20	0.31768
322.40	0.31604
322.60	0.31386
322.80	0.31127
323.00	0.30983
323.20	0.30812
323.40	0.30607
323.60	0.30432
323.80	0.30135
324.00	0.29986
324.20	0.29722
324.40	0.29558
324.60	0.29335
324.80	0.29114
325.00	0.28972
325.20	0.28694
325.40	0.28500
325.60	0.28265
325.80	0.28084
326.00	0.27833
326.20	0.27616
326.40	0.27431
326.60	0.27182
326.80	0.26951
327.00	0.26792
327.20	0.26543
327.40	0.26341
327.60	0.26064
327.80	0.25895
328.00	0.25686
328.20	0.25435
328.40	0.25181
328.60	0.25034
328.80	0.24761
329.00	0.24535
329.20	0.24347
329.40	0.24139
329.60	0.23934
329.80	0.23694
330.00	0.23457
330.20	0.23289
330.40	0.22970
330.60	0.22861
330.80	0.22650
331.00	0.22425
331.20	0.22178
331.40	0.21971
331.60	0.21812
331.80	0.21587
332.00	0.21345
332.20	0.21180
332.40	0.21053
332.60	0.20742
332.80	0.20563
333.00	0.20366
333.20	0.20184
333.40	0.20005
333.60	0.19849
333.80	0.19695
334.00	0.19488
334.20	0.19333
334.40	0.19193
334.60	0.19068
334.80	0.18804
335.00	0.18628
335.20	0.18489
335.40	0.18286
335.60	0.18139
335.80	0.17949
336.00	0.17864
336.20	0.17714
336.40	0.17581
336.60	0.17394
336.80	0.17202
337.00	0.17107
337.20	0.17038
337.40	0.16720
337.60	0.16661
337.80	0.16561
338.00	0.16535
338.20	0.16368
338.40	0.16191
338.60	0.16100
338.80	0.15989
339.00	0.15875
339.20	0.15832
339.40	0.15734
339.60	0.15606
339.80	0.15497
340.00	0.15466
340.20	0.15395
340.40	0.15217
340.60	0.15219
340.80	0.15061
341.00	0.15022
341.20	0.14989
341.40	0.14883
341.60	0.14851
341.80	0.14804
342.00	0.14688
342.20	0.14692
342.40	0.14624
342.60	0.14517
342.80	0.14508
343.00	0.14524
343.20	0.14439
343.40	0.14388
343.60	0.14334
343.80	0.14263
344.00	0.14284
344.20	0.14312
344.40	0.14239
344.60	0.14156
344.80	0.14159
345.00	0.14135
345.20	0.14087
345.40	0.14135
345.60	0.14156
345.80	0.14121
346.00	0.14158
346.20	0.14051
346.40	0.14061
346.60	0.14089
346.80	0.13990
347.00	0.14049
347.20	0.14078
347.40	0.14071
347.60	0.14068
347.80	0.14137
348.00	0.14109
348.20	0.14082
348.40	0.14196
348.60	0.14192
348.80	0.14147
349.00	0.14192
349.20	0.14178
349.40	0.14305
349.60	0.14230
349.80	0.14291
350.00	0.14562
350.20	0.14602
350.40	0.14581
350.60	0.14655
350.80	0.14659
351.00	0.14702
351.20	0.14716
351.40	0.14788
351.60	0.14737
351.80	0.14685
352.00	0.14721
352.20	0.14816
352.40	0.14768
352.60	0.14871
352.80	0.14970
353.00	0.15041
353.20	0.14975
353.40	0.15186
353.60	0.15238
353.80	0.15353
354.00	0.15372
354.20	0.15454
354.40	0.15635
354.60	0.15692
354.80	0.15633
355.00	0.15830
355.20	0.15718
355.40	0.15832
355.60	0.15929
355.80	0.15956
356.00	0.16029
356.20	0.16096
356.40	0.16001
356.60	0.16008
356.80	0.16076
357.00	0.16183
357.20	0.16214
357.40	0.16319
357.60	0.16409
357.80	0.16432
358.00	0.16549
358.20	0.16625
358.40	0.16775
358.60	0.16978
358.80	0.17057
359.00	0.17154
359.20	0.17199
359.40	0.17295
359.60	0.17427
359.80	0.17520
360.00	0.17596
360.20	0.17701
360.40	0.17803
360.60	0.17869
360.80	0.17936
361.00	0.18013
361.20	0.18028
361.40	0.18177
361.60	0.18279
361.80	0.18382
362.00	0.18439
362.20	0.18467
362.40	0.18610
362.60	0.18683
362.80	0.18591
363.00	0.18788
363.20	0.18875
363.40	0.18933
363.60	0.19094
363.80	0.19163
364.00	0.19293
364.20	0.19410
364.40	0.19505
364.60	0.19621
364.80	0.19692
365.00	0.19828
365.20	0.19885
365.40	0.20062
365.60	0.20200
365.80	0.20250
366.00	0.20463
366.20	0.20613
366.40	0.20706
366.60	0.20753
366.80	0.20855
367.00	0.21124
367.20	0.21280
367.40	0.21363
367.60	0.21574
367.80	0.21584
368.00	0.21769
368.20	0.21983
368.40	0.22107
368.60	0.22232
368.80	0.22336
369.00	0.22503
369.20	0.22551
369.40	0.22683
369.60	0.22906
369.80	0.22812
370.00	0.23034
370.20	0.23191
370.40	0.23232
370.60	0.23365
370.80	0.23557
371.00	0.23768
371.20	0.23842
371.40	0.24084
371.60	0.24262
371.80	0.24480
372.00	0.24632
372.20	0.24761
372.40	0.24884
372.60	0.25024
372.80	0.25126
373.00	0.25304
373.20	0.25451
373.40	0.25613
373.60	0.25808
373.80	0.25957
374.00	0.26078
374.20	0.26284
374.40	0.26413
374.60	0.26579
374.80	0.26786
375.00	0.26918
375.20	0.27137
375.40	0.27293
375.60	0.27498
375.80	0.27585
376.00	0.27707
376.20	0.27987
376.40	0.28082
376.60	0.28340
376.80	0.28468
377.00	0.28621
377.20	0.28811
377.40	0.28918
377.60	0.29105
377.80	0.29314
378.00	0.29541
378.20	0.29668
378.40	0.29893
378.60	0.30069
378.80	0.30163
379.00	0.30318
379.20	0.30556
379.40	0.30736
379.60	0.30899
379.80	0.31039
380.00	0.31230
380.20	0.31562
380.40	0.31773
380.60	0.31947
380.80	0.32089
381.00	0.32284
381.20	0.32467
381.40	0.32687
381.60	0.32903
381.80	0.33226
382.00	0.33333
382.20	0.33421
382.40	0.33596
382.60	0.33886
382.80	0.34213
383.00	0.34347
383.20	0.34579
383.40	0.34707
383.60	0.34978
383.80	0.35180
384.00	0.35415
384.20	0.35648
384.40	0.35866
384.60	0.36070
384.80	0.36281
385.00	0.36500
385.20	0.36766
385.40	0.36991
385.60	0.37172
385.80	0.37530
386.00	0.37718
386.20	0.37881
386.40	0.38136
386.60	0.38406
386.80	0.38650
387.00	0.38783
387.20	0.39047
387.40	0.39358
387.60	0.39576
387.80	0.39835
388.00	0.40066
388.20	0.40331
388.40	0.40583
388.60	0.40897
388.80	0.41124
389.00	0.41328
389.20	0.41628
389.40	0.41872
389.60	0.42097
389.80	0.42484
390.00	0.42755
390.20	0.42986
390.40	0.43277
390.60	0.43608
390.80	0.43830
391.00	0.44049
391.20	0.44358
391.40	0.44611
391.60	0.44840
391.80	0.45134
392.00	0.45440
392.20	0.45642
392.40	0.45875
392.60	0.46210
392.80	0.46470
393.00	0.46753
393.20	0.47054
393.40	0.47328
393.60	0.47610
393.80	0.47880
394.00	0.48185
394.20	0.48445
394.40	0.48756
394.60	0.49044
394.80	0.49352
395.00	0.49626
395.20	0.49970
395.40	0.50247
395.60	0.50568
395.80	0.50832
396.00	0.51112
396.20	0.51454
396.40	0.51710
396.60	0.52057
396.80	0.52235
397.00	0.52662
397.20	0.52996
397.40	0.53315
397.60	0.53600
397.80	0.53937
398.00	0.54191
398.20	0.54499
398.40	0.54837
398.60	0.55178
398.80	0.55449
399.00	0.55745
399.20	0.56083
399.40	0.56282
399.60	0.56843
399.80	0.57063
400.00	0.57388
400.20	0.57675
400.40	0.57986
400.60	0.58323
400.80	0.58656
401.00	0.58941
401.20	0.59276
401.40	0.59594
401.60	0.59964
401.80	0.60220
402.00	0.60522
402.20	0.60850
402.40	0.61172
402.60	0.61500
402.80	0.61852
403.00	0.62170
403.20	0.62533
403.40	0.62842
403.60	0.63096
403.80	0.63397
404.00	0.63748
404.20	0.64017
404.40	0.64368
404.60	0.64660
404.80	0.65018
405.00	0.65389
405.20	0.65733
405.40	0.65994
405.60	0.66308
405.80	0.66670
406.00	0.66963
406.20	0.67257
406.40	0.67506
406.60	0.67938
406.80	0.68318
407.00	0.68641
407.20	0.68916
407.40	0.69261
407.60	0.69574
407.80	0.69899
408.00	0.70241
408.20	0.70531
408.40	0.70815
408.60	0.71191
408.80	0.71497
409.00	0.71789
409.20	0.72136
409.40	0.72427
409.60	0.72771
409.80	0.73094
410.00	0.73360
410.20	0.73645
410.40	0.73940
410.60	0.74357
410.80	0.74687
411.00	0.75032
411.20	0.75359
411.40	0.75666
411.60	0.75917
411.80	0.76278
412.00	0.76570
412.20	0.76874
412.40	0.77223
412.60	0.77534
412.80	0.77826
413.00	0.78103
413.20	0.78453
413.40	0.78666
413.60	0.78897
413.80	0.79362
414.00	0.79756
414.20	0.79958
414.40	0.80304
414.60	0.80594
414.80	0.80860
415.00	0.81106
415.20	0.81420
415.40	0.81854
415.60	0.82118
415.80	0.82408
416.00	0.82571
416.20	0.82911
416.40	0.83279
416.60	0.83571
416.80	0.83877
417.00	0.84198
417.20	0.84483
417.40	0.84741
417.60	0.84960
417.80	0.85238
418.00	0.85606
418.20	0.85860
418.40	0.86161
418.60	0.86460
418.80	0.86714
419.00	0.86977
419.20	0.87322
419.40	0.87516
419.60	0.87811
419.80	0.88051
420.00	0.88350
420.20	0.88596
420.40	0.88900
420.60	0.89136
420.80	0.89377
421.00	0.89648
421.20	0.89962
421.40	0.90185
421.60	0.90391
421.80	0.90643
422.00	0.90899
422.20	0.91149
422.40	0.91396
422.60	0.91626
422.80	0.91851
423.00	0.92039
423.20	0.92342
423.40	0.92547
423.60	0.92768
423.80	0.93060
424.00	0.93223
424.20	0.93408
424.40	0.93662
424.60	0.93922
424.80	0.94123
425.00	0.94287
425.20	0.94494
425.40	0.94633
425.60	0.94849
425.80	0.95027
426.00	0.95225
426.20	0.95415
426.40	0.95600
426.60	0.95764
426.80	0.95885
427.00	0.96020
427.20	0.96297
427.40	0.96476
427.60	0.96673
427.80	0.96766
428.00	0.96865
428.20	0.97117
428.40	0.97223
428.60	0.97426
428.80	0.97522
429.00	0.97670
429.20	0.97864
429.40	0.97910
429.60	0.98066
429.80	0.98261
430.00	0.98360
430.20	0.98423
430.40	0.98572
430.60	0.98702
430.80	0.98785
431.00	0.98914
431.20	0.98968
431.40	0.99073
431.60	0.99153
431.80	0.99191
432.00	0.99246
432.20	0.99246
432.40	0.99483
432.60	0.99522
432.80	0.99610
433.00	0.99667
433.20	0.99747
433.40	0.99780
433.60	0.99814
433.80	0.99840
434.00	0.99816
434.20	0.99849
434.40	0.99911
434.60	0.99923
434.80	0.99877
435.00	0.99863
435.20	0.99813
435.40	0.99852
435.60	1.0000
435.80	0.99973
436.00	0.99877
436.20	0.99842
436.40	0.99754
436.60	0.99856
436.80	0.99852
437.00	0.99852
437.20	0.99754
437.40	0.99749
437.60	0.99647
437.80	0.99579
438.00	0.99509
438.20	0.99529
438.40	0.99429
438.60	0.99434
438.80	0.99279
439.00	0.99286
439.20	0.99182
439.40	0.99085
439.60	0.98973
439.80	0.98867
440.00	0.98760
440.20	0.98715
440.40	0.98631
440.60	0.98517
440.80	0.98318
441.00	0.98190
441.20	0.98083
441.40	0.97950
441.60	0.97833
441.80	0.97712
442.00	0.97515
442.20	0.97375
442.40	0.97261
442.60	0.97060
442.80	0.96967
443.00	0.96887
443.20	0.96623
443.40	0.96414
443.60	0.96297
443.80	0.96127
444.00	0.95892
444.20	0.95725
444.40	0.95557
444.60	0.95338
444.80	0.95115
445.00	0.94911
445.20	0.94714
445.40	0.94481
445.60	0.94322
445.80	0.94099
446.00	0.93855
446.20	0.93686
446.40	0.93418
446.60	0.93285
446.80	0.92950
447.00	0.92735
447.20	0.92478
447.40	0.92215
447.60	0.91960
447.80	0.91723
448.00	0.91457
448.20	0.91191
448.40	0.90897
448.60	0.90628
448.80	0.90398
449.00	0.90109
449.20	0.89817
449.40	0.89548
449.60	0.89221
449.80	0.88969
450.00	0.88639
450.20	0.88388
450.40	0.88074
450.60	0.87730
450.80	0.87350
451.00	0.87077
451.20	0.86783
451.40	0.86406
451.60	0.86133
451.80	0.85757
452.00	0.85396
452.20	0.85128
452.40	0.84807
452.60	0.84447
452.80	0.84157
453.00	0.83799
453.20	0.83443
453.40	0.83101
453.60	0.82759
453.80	0.82339
454.00	0.81997
454.20	0.81660
454.40	0.81301
454.60	0.80926
454.80	0.80546
455.00	0.80153
455.20	0.79725
455.40	0.79466
455.60	0.79129
455.80	0.78714
456.00	0.78320
456.20	0.77949
456.40	0.77536
456.60	0.77152
456.80	0.76748
457.00	0.76335
457.20	0.76000
457.40	0.75628
457.60	0.75170
457.80	0.74730
458.00	0.74386
458.20	0.73951
458.40	0.73596
458.60	0.73180
458.80	0.72790
459.00	0.72373
459.20	0.71981
459.40	0.71549
459.60	0.71162
459.80	0.70740
460.00	0.70343
460.20	0.69897
460.40	0.69467
460.60	0.69037
460.80	0.68615
461.00	0.68242
461.20	0.67760
461.40	0.67380
461.60	0.66936
461.80	0.66497
462.00	0.66082
462.20	0.65629
462.40	0.65192
462.60	0.64766
462.80	0.64403
463.00	0.63938
463.20	0.63475
463.40	0.63091
463.60	0.62649
463.80	0.62058
464.00	0.61697
464.20	0.61301
464.40	0.60906
464.60	0.60455
464.80	0.60078
465.00	0.59561
465.20	0.59110
465.40	0.58654
465.60	0.58234
465.80	0.57787
466.00	0.57393
466.20	0.56914
466.40	0.56455
466.60	0.56068
466.80	0.55593
467.00	0.55183
467.20	0.54679
467.40	0.54229
467.60	0.53815
467.80	0.53355
468.00	0.52909
468.20	0.52458
468.40	0.51974
468.60	0.51518
468.80	0.51085
469.00	0.50651
469.20	0.50160
469.40	0.49618
469.60	0.49326
469.80	0.48870
470.00	0.48320
470.20	0.47992
470.40	0.47475
470.60	0.47055
470.80	0.46611
471.00	0.46214
471.20	0.45713
471.40	0.45260
471.60	0.44837
471.80	0.44382
472.00	0.43940
472.20	0.43510
472.40	0.43038
472.60	0.42575
472.80	0.42202
473.00	0.41670
473.20	0.41284
473.40	0.40846
473.60	0.40421
473.80	0.39949
474.00	0.39546
474.20	0.39133
474.40	0.38679
474.60	0.38252
474.80	0.37834
475.00	0.37399
475.20	0.36996
475.40	0.36595
475.60	0.36151
475.80	0.35728
476.00	0.35329
476.20	0.34926
476.40	0.34506
476.60	0.34052
476.80	0.33667
477.00	0.33337
477.20	0.32977
477.40	0.32543
477.60	0.32184
477.80	0.31833
478.00	0.31417
478.20	0.31063
478.40	0.30641
478.60	0.30292
478.80	0.29962
479.00	0.29470
479.20	0.29152
479.40	0.28841
479.60	0.28493
479.80	0.28139
480.00	0.27776
480.20	0.27488
480.40	0.27070
480.60	0.26767
480.80	0.26508
481.00	0.26073
481.20	0.25779
481.40	0.25442
481.60	0.25105
481.80	0.24815
482.00	0.24509
482.20	0.24224
482.40	0.23935
482.60	0.23581
482.80	0.23293
483.00	0.22952
483.20	0.22652
483.40	0.22405
483.60	0.22059
483.80	0.21795
484.00	0.21555
484.20	0.21254
484.40	0.20939
484.60	0.20696
484.80	0.20452
485.00	0.20131
485.20	0.19870
485.40	0.19631
485.60	0.19377
485.80	0.19104
486.00	0.18840
486.20	0.18626
486.40	0.18306
486.60	0.18102
486.80	0.17866
487.00	0.17629
487.20	0.17397
487.40	0.17180
487.60	0.16915
487.80	0.16727
488.00	0.16464
488.20	0.16250
488.40	0.15963
488.60	0.15751
488.80	0.15668
489.00	0.15426
489.20	0.15210
489.40	0.15068
489.60	0.14818
489.80	0.14645
490.00	0.14417
490.20	0.14241
490.40	0.13973
490.60	0.13850
490.80	0.13684
491.00	0.13455
491.20	0.13277
491.40	0.13035
491.60	0.12938
491.80	0.12781
492.00	0.12661
492.20	0.12470
492.40	0.12254
492.60	0.12079
492.80	0.11958
493.00	0.11823
493.20	0.11709
493.40	0.11526
493.60	0.11331
493.80	0.11220
494.00	0.11115
494.20	0.11008
494.40	0.10899
494.60	0.10680
494.80	0.10560
495.00	0.10367
495.20	0.10234
495.40	0.10187
495.60	0.10054
495.80	0.099764
496.00	0.097691
496.20	0.096792
496.40	0.095980
496.60	0.095306
496.80	0.094062
497.00	0.092732
497.20	0.091609
497.40	0.090158
497.60	0.089069
497.80	0.088205
498.00	0.087289
498.20	0.086218
498.40	0.085112
498.60	0.084663
498.80	0.083194
499.00	0.081916
499.20	0.081812
499.40	0.080931
499.60	0.079981
499.80	0.079134
500.00	0.078529
500.20	0.077251
500.40	0.076335
500.60	0.075972
500.80	0.075316
501.00	0.074763
501.20	0.073380
501.40	0.072275
501.60	0.071774
501.80	0.070944
502.00	0.070616
502.20	0.069355
502.40	0.069216
502.60	0.068715
502.80	0.067713
503.00	0.066988
503.20	0.066210
503.40	0.066175
503.60	0.065605
503.80	0.064914
504.00	0.064482
504.20	0.063687
504.40	0.063255
504.60	0.062633
504.80	0.061873
505.00	0.061424
505.20	0.061147
505.40	0.060629
505.60	0.060059
505.80	0.059679
506.00	0.059281
506.20	0.058556
506.40	0.058158
506.60	0.057865
506.80	0.057951
507.00	0.057035
507.20	0.056551
507.40	0.056189
507.60	0.055809
507.80	0.055187
508.00	0.054893
508.20	0.053960
508.40	0.053234
508.60	0.054184
508.80	0.054547
509.00	0.053839
509.20	0.053545
509.40	0.052768
509.60	0.052094
509.80	0.052336
510.00	0.052370
510.20	0.051558
510.40	0.051489
510.60	0.050711
510.80	0.050781
511.00	0.050729
511.20	0.050832
511.40	0.049986
511.60	0.049830
511.80	0.049899
512.00	0.049156
512.20	0.048241
512.40	0.048724
512.60	0.048465
512.80	0.048673
513.00	0.048258
513.20	0.047705
513.40	0.046962
513.60	0.047256
513.80	0.047204
514.00	0.047048
514.20	0.046772
514.40	0.046064
514.60	0.046046
514.80	0.046306
515.00	0.045666
515.20	0.045545
515.40	0.045718
515.60	0.045269
515.80	0.045131
516.00	0.045234
516.20	0.044664
516.40	0.044543
516.60	0.044509
516.80	0.044405
517.00	0.043783
517.20	0.044319
517.40	0.044180
517.60	0.043368
517.80	0.043265
518.00	0.043506
518.20	0.043126
518.40	0.043057
518.60	0.043075
518.80	0.042729
519.00	0.042332
519.20	0.042591
519.40	0.042055
519.60	0.041813
519.80	0.042003
520.00	0.041744
520.20	0.041813
520.40	0.041450
520.60	0.041139
520.80	0.041001
521.00	0.040414
521.20	0.039792
521.40	0.040828
521.60	0.040828
521.80	0.040846
522.00	0.040586
522.20	0.040258
522.40	0.040224
522.60	0.039895
522.80	0.039982
523.00	0.040034
523.20	0.039705
523.40	0.039826
523.60	0.039567
523.80	0.039412
524.00	0.039256
524.20	0.039152
524.40	0.039083
524.60	0.039135
524.80	0.038686
525.00	0.037960
525.20	0.038755
525.40	0.038358
525.60	0.038790
525.80	0.039135
526.00	0.038358
526.20	0.037373
526.40	0.037874
526.60	0.038271
526.80	0.038012
527.00	0.037891
527.20	0.038081
527.40	0.037528
527.60	0.037857
527.80	0.037891
528.00	0.037597
528.20	0.037096
528.40	0.037425
528.60	0.037666
528.80	0.037114
529.00	0.037044
529.20	0.037442
529.40	0.037044
529.60	0.036733
529.80	0.036733
530.00	0.036543
530.20	0.036163
530.40	0.036232
530.60	0.035921
530.80	0.036042
531.00	0.036094
531.20	0.036025
531.40	0.035956
531.60	0.035990
531.80	0.035904
532.00	0.036250
532.20	0.035870
532.40	0.036094
532.60	0.035870
532.80	0.036042
533.00	0.035870
533.20	0.035990
533.40	0.035697
533.60	0.035610
533.80	0.035438
534.00	0.035489
534.20	0.035766
534.40	0.035593
534.60	0.035317
534.80	0.035334
535.00	0.035368
535.20	0.035507
535.40	0.035006
535.60	0.035040
535.80	0.035230
536.00	0.035230
536.20	0.035109
536.40	0.035213
536.60	0.035196
536.80	0.034798
537.00	0.034988
537.20	0.035109
537.40	0.034954
537.60	0.034781
537.80	0.034971
538.00	0.034695
538.20	0.034729
538.40	0.034746
538.60	0.034781
538.80	0.034591
539.00	0.034833
539.20	0.034867
539.40	0.034453
539.60	0.034453
539.80	0.034591
540.00	0.034677
540.20	0.034487
540.40	0.034798
540.60	0.034867
540.80	0.034505
541.00	0.034798
541.20	0.034591
541.40	0.034470
541.60	0.034349
541.80	0.034556
542.00	0.034712
542.20	0.034401
542.40	0.034574
542.60	0.034384
542.80	0.034349
543.00	0.034263
543.20	0.034556
543.40	0.034660
543.60	0.034470
543.80	0.034349
544.00	0.034712
544.20	0.034314
544.40	0.034280
544.60	0.034660
544.80	0.033658
545.00	0.033070
545.20	0.034574
545.40	0.034729
545.60	0.034453
545.80	0.034263
546.00	0.033554
546.20	0.034574
546.40	0.034522
546.60	0.034280
546.80	0.034021
547.00	0.033762
547.20	0.034245
547.40	0.034090
547.60	0.034280
547.80	0.034176
548.00	0.034453
548.20	0.034142
548.40	0.034280
548.60	0.034349
548.80	0.034142
549.00	0.034263
549.20	0.034228
549.40	0.034435
549.60	0.034470
549.80	0.034712
550.00	0.033658
550.20	0.034781
550.40	0.034021
550.60	0.034280
550.80	0.033934
551.00	0.034055
551.20	0.034470
551.40	0.034384
551.60	0.033986
551.80	0.034021
552.00	0.034332
552.20	0.034159
552.40	0.034505
552.60	0.033986
552.80	0.034159
553.00	0.034142
553.20	0.034314
553.40	0.033883
553.60	0.033952
553.80	0.034159
554.00	0.034055
554.20	0.033865
554.40	0.034384
554.60	0.034159
554.80	0.033883
555.00	0.034073
555.20	0.034159
555.40	0.034021
555.60	0.034228
555.80	0.034159
556.00	0.033952
556.20	0.034073
556.40	0.033986
556.60	0.033744
556.80	0.033883
557.00	0.033917
557.20	0.033900
557.40	0.033848
557.60	0.033848
557.80	0.033641
558.00	0.033347
558.20	0.033381
558.40	0.033986
558.60	0.033831
558.80	0.033537
559.00	0.033572
559.20	0.033312
559.40	0.033554
559.60	0.033589
559.80	0.033658
560.00	0.033727
560.20	0.033537
560.40	0.033641
560.60	0.033813
560.80	0.033468
561.00	0.033710
561.20	0.033865
561.40	0.033330
561.60	0.033416
561.80	0.033468
562.00	0.033105
562.20	0.032967
562.40	0.033692
562.60	0.033779
562.80	0.033157
563.00	0.033347
563.20	0.033485
563.40	0.033433
563.60	0.033347
563.80	0.033209
564.00	0.033157
564.20	0.033381
564.40	0.033157
564.60	0.032967
564.80	0.032915
565.00	0.033589
565.20	0.032967
565.40	0.032656
565.60	0.033502
565.80	0.032967
566.00	0.032708
566.20	0.032345
566.40	0.032345
566.60	0.032708
566.80	0.032846
567.00	0.032777
567.20	0.032811
567.40	0.033070
567.60	0.033312
567.80	0.032915
568.00	0.032379
568.20	0.032362
568.40	0.033157
568.60	0.033001
568.80	0.032829
569.00	0.031757
569.20	0.032708
569.40	0.032673
569.60	0.032258
569.80	0.032379
570.00	0.032345
570.20	0.033105
570.40	0.032483
570.60	0.032293
570.80	0.032466
571.00	0.032397
571.20	0.032258
571.40	0.032466
571.60	0.032414
571.80	0.031913
572.00	0.031947
572.20	0.032224
572.40	0.032189
572.60	0.032016
572.80	0.032466
573.00	0.031965
573.20	0.031636
573.40	0.032068
573.60	0.031982
573.80	0.031619
574.00	0.031999
574.20	0.031965
574.40	0.031792
574.60	0.031896
574.80	0.031705
575.00	0.031826
575.20	0.031809
575.40	0.031723
575.60	0.031723
575.80	0.031740
576.00	0.031809
576.20	0.031896
576.40	0.031826
576.60	0.031498
576.80	0.031602
577.00	0.031654
577.20	0.030772
577.40	0.030928
577.60	0.031723
577.80	0.031705
578.00	0.031619
578.20	0.031515
578.40	0.031550
578.60	0.031274
578.80	0.031688
579.00	0.031153
579.20	0.031481
579.40	0.031775
579.60	0.031515
579.80	0.030963
580.00	0.031464
580.20	0.031049
580.40	0.031049
580.60	0.031308
580.80	0.031118
581.00	0.031464
581.20	0.030876
581.40	0.031481
581.60	0.031239
581.80	0.030928
582.00	0.030911
582.20	0.031222
582.40	0.031032
582.60	0.031239
582.80	0.031291
583.00	0.031239
583.20	0.030997
583.40	0.031118
583.60	0.030807
583.80	0.031049
584.00	0.031118
584.20	0.030997
584.40	0.030876
584.60	0.030876
584.80	0.030997
585.00	0.031083
585.20	0.030669
585.40	0.030945
585.60	0.031083
585.80	0.030911
586.00	0.030824
586.20	0.030669
586.40	0.030686
586.60	0.030410
586.80	0.030772
587.00	0.030963
587.20	0.030772
587.40	0.030392
587.60	0.030772
587.80	0.030513
588.00	0.030220
588.20	0.030669
588.40	0.030427
588.60	0.030168
588.80	0.030772
589.00	0.030340
589.20	0.030289
589.40	0.030444
589.60	0.030133
589.80	0.029805
590.00	0.030531
590.20	0.030185
590.40	0.029891
590.60	0.029995
590.80	0.030081
591.00	0.029978
591.20	0.029770
591.40	0.030254
591.60	0.029701
591.80	0.029874
592.00	0.029839
592.20	0.029805
592.40	0.029338
592.60	0.029649
592.80	0.029753
593.00	0.029684
593.20	0.029528
593.40	0.029615
593.60	0.029235
593.80	0.029269
594.00	0.029563
594.20	0.029338
594.40	0.029114
594.60	0.029079
594.80	0.029183
595.00	0.029287
595.20	0.028976
595.40	0.028993
595.60	0.029407
595.80	0.029010
596.00	0.028837
596.20	0.029096
596.40	0.028751
596.60	0.028716
596.80	0.028872
597.00	0.028544
597.20	0.028267
597.40	0.027939
597.60	0.027956
597.80	0.028647
598.00	0.028544
598.20	0.028768
598.40	0.028440
598.60	0.028526
598.80	0.028803
599.00	0.028284
599.20	0.027939
599.40	0.027731
599.60	0.027818
599.80	0.027127
600.00	0.027541
600.20	0.027887
600.40	0.028319
600.60	0.027991
600.80	0.027956
601.00	0.027282
601.20	0.027490
601.40	0.027420
601.60	0.027179
601.80	0.026989
602.00	0.026453
602.20	0.027161
602.40	0.027179
602.60	0.027369
602.80	0.027092
603.00	0.026712
603.20	0.027490
603.40	0.026937
603.60	0.026712
603.80	0.026781
604.00	0.026487
604.20	0.026626
604.40	0.026263
604.60	0.025727
604.80	0.025589
605.00	0.026436
605.20	0.026349
605.40	0.026608
605.60	0.026142
605.80	0.026107
606.00	0.025969
606.20	0.025658
606.40	0.025554
606.60	0.025554
606.80	0.025433
607.00	0.024898
607.20	0.024483
607.40	0.025883
607.60	0.025313
607.80	0.025313
608.00	0.025382
608.20	0.024898
608.40	0.024639
608.60	0.025019
608.80	0.024760
609.00	0.024293
609.20	0.024241
609.40	0.024051
609.60	0.023948
609.80	0.024708
610.00	0.024621
610.20	0.024103
610.40	0.024034
610.60	0.024328
610.80	0.023913
611.00	0.023982
611.20	0.023878
611.40	0.024120
611.60	0.023671
611.80	0.023602
612.00	0.023498
612.20	0.023291
612.40	0.023395
612.60	0.022462
612.80	0.023170
613.00	0.023135
613.20	0.023360
613.40	0.023550
613.60	0.022945
613.80	0.022876
614.00	0.022859
614.20	0.022721
614.40	0.022479
614.60	0.022634
614.80	0.022583
615.00	0.022427
615.20	0.022323
615.40	0.022133
615.60	0.021546
615.80	0.020699
616.00	0.021822
616.20	0.022202
616.40	0.021822
616.60	0.022012
616.80	0.021822
617.00	0.021563
617.20	0.021650
617.40	0.021494
617.60	0.021235
617.80	0.021010
618.00	0.021183
618.20	0.020060
618.40	0.020285
618.60	0.021252
618.80	0.021218
619.00	0.020924
619.20	0.021097
619.40	0.020872
619.60	0.020475
619.80	0.020561
620.00	0.020388
620.20	0.020267
620.40	0.020025
620.60	0.019645
620.80	0.018764
621.00	0.019507
621.20	0.020112
621.40	0.019818
621.60	0.019732
621.80	0.019542
622.00	0.019576
622.20	0.019179
622.40	0.018902
622.60	0.018574
622.80	0.018211
623.00	0.019023
623.20	0.018971
623.40	0.019006
623.60	0.018781
623.80	0.018660
624.00	0.018902
624.20	0.018349
624.40	0.017987
624.60	0.018488
624.80	0.018401
625.00	0.018177
625.20	0.018073
625.40	0.018419
625.60	0.018125
625.80	0.018211
626.00	0.017969
626.20	0.017676
626.40	0.017572
626.60	0.017710
626.80	0.017745
627.00	0.017434
627.20	0.017537
627.40	0.017278
627.60	0.016898
627.80	0.017071
628.00	0.016950
628.20	0.017036
628.40	0.016760
628.60	0.017071
628.80	0.016432
629.00	0.016673
629.20	0.016604
629.40	0.016276
629.60	0.015930
629.80	0.016725
630.00	0.016241
630.20	0.015913
630.40	0.016311
630.60	0.016086
630.80	0.015965
631.00	0.015723
631.20	0.016017
631.40	0.015810
631.60	0.015723
631.80	0.015654
632.00	0.015343
632.20	0.015257
632.40	0.014859
632.60	0.014859
632.80	0.014635
633.00	0.015222
633.20	0.015447
633.40	0.015205
633.60	0.014894
633.80	0.015049
634.00	0.014842
634.20	0.014859
634.40	0.014358
634.60	0.014427
634.80	0.014462
635.00	0.014358
635.20	0.014583
635.40	0.014531
635.60	0.013892
635.80	0.014220
636.00	0.014185
636.20	0.013805
636.40	0.013926
636.60	0.013943
636.80	0.013840
637.00	0.013563
637.20	0.013926
637.40	0.013719
637.60	0.013581
637.80	0.013425
638.00	0.013408
638.20	0.013425
638.40	0.013442
638.60	0.013304
638.80	0.013062
639.00	0.012959
639.20	0.012855
639.40	0.012924
639.60	0.012924
639.80	0.012682
640.00	0.012838
640.20	0.012613
640.40	0.012388
640.60	0.012302
640.80	0.012319
641.00	0.012492
641.20	0.012337
641.40	0.012423
641.60	0.012561
641.80	0.012129
642.00	0.012268
642.20	0.012043
642.40	0.012147
642.60	0.012095
642.80	0.011784
643.00	0.011732
643.20	0.011680
643.40	0.011404
643.60	0.011594
643.80	0.011766
644.00	0.011559
644.20	0.011265
644.40	0.011473
644.60	0.011525
644.80	0.011317
645.00	0.011231
645.20	0.011542
645.40	0.011127
645.60	0.011023
645.80	0.011075
646.00	0.010799
646.20	0.011058
646.40	0.011058
646.60	0.010574
646.80	0.010350
647.00	0.010799
647.20	0.010695
647.40	0.010211
647.60	0.010592
647.80	0.011041
648.00	0.010108
648.20	0.010263
648.40	0.010367
648.60	0.010453
648.80	0.010056
649.00	0.010039
649.20	0.010004
649.40	0.010350
649.60	0.010090
649.80	0.0099868
650.00	0.0099522
650.20	0.010436
650.40	0.0099350
650.60	0.0099177
650.80	0.010142
651.00	0.0097103
651.20	0.010073
651.40	0.0095203
651.60	0.0094166
651.80	0.0095548
652.00	0.0095376
652.20	0.0091747
652.40	0.0091402
652.60	0.0094512
652.80	0.0096239
653.00	0.0092784
653.20	0.0089155
653.40	0.0086909
653.60	0.0095376
653.80	0.0094339
654.00	0.0089501
654.20	0.0092611
654.40	0.0087600
654.60	0.0086218
654.80	0.0083626
655.00	0.0088983
655.20	0.0093129
655.40	0.0085009
655.60	0.0081207
655.80	0.0081553
656.00	0.0085527
656.20	0.0084836
656.40	0.0090538
656.60	0.0086045
656.80	0.0085009
657.00	0.0086218
657.20	0.0082590
657.40	0.0076197
657.60	0.0085181
657.80	0.0089847
658.00	0.0082417
658.20	0.0083454
658.40	0.0078616
658.60	0.0080516
658.80	0.0084490
659.00	0.0082935
659.20	0.0074296
659.40	0.0073259
659.60	0.0074469
659.80	0.0079307
660.00	0.0081899
660.20	0.0074296
660.40	0.0082590
660.60	0.0077752
660.80	0.0081380
661.00	0.0072568
661.20	0.0076197
661.40	0.0077752
661.60	0.0073951
661.80	0.0074296
662.00	0.0076197
662.20	0.0069977
662.40	0.0072914
662.60	0.0072223
662.80	0.0067730
663.00	0.0068767
663.20	0.0073432
663.40	0.0063929
663.60	0.0063584
663.80	0.0063929
664.00	0.0063411
664.20	0.0069286
664.40	0.0068076
664.60	0.0065484
664.80	0.0062893
665.00	0.0065657
665.20	0.0065139
665.40	0.0066867
665.60	0.0064620
665.80	0.0064793
666.00	0.0064102
666.20	0.0062374
666.40	0.0064620
666.60	0.0067730
666.80	0.0067385
667.00	0.0066867
667.20	0.0066867
667.40	0.0061856
667.60	0.0065139
667.80	0.0055981
668.00	0.0068076
668.20	0.0073605
668.40	0.0060128
668.60	0.0063065
668.80	0.0065139
669.00	0.0062547
669.20	0.0063065
669.40	0.0063756
669.60	0.0066521
669.80	0.0066867
670.00	0.0060128
670.20	0.0063584
670.40	0.0064275
670.60	0.0063065
670.80	0.0059783
671.00	0.0062720
671.20	0.0058573
671.40	0.0056845
671.60	0.0050107
671.80	0.0059437
672.00	0.0062374
672.20	0.0063584
672.40	0.0067558
672.60	0.0066175
672.80	0.0063929
673.00	0.0065830
673.20	0.0067039
673.40	0.0069977
673.60	0.0064102
673.80	0.0054426
674.00	0.0055117
674.20	0.0067903
674.40	0.0060301
674.60	0.0064966
674.80	0.0067730
675.00	0.0067039
675.20	0.0064966
675.40	0.0059264
675.60	0.0069631
675.80	0.0060646
676.00	0.0058573
676.20	0.0067730
676.40	0.0058573
676.60	0.0054945
676.80	0.0058227
677.00	0.0048897
677.20	0.0043887
677.40	0.0055463
677.60	0.0056154
677.80	0.0061338
678.00	0.0049934
678.20	0.0058919
678.40	0.0053735
678.60	0.0053735
678.80	0.0056327
679.00	0.0053562
679.20	0.0047169
679.40	0.0040258
679.60	0.0053044
679.80	0.0055463
680.00	0.0053908
680.20	0.0050625
680.40	0.0051316
680.60	0.0046824
680.80	0.0048379
681.00	0.0048033
681.20	0.0050625
681.40	0.0045787
681.60	0.0048724
681.80	0.0052526
682.00	0.0052180
682.20	0.0053044
682.40	0.0049243
682.60	0.0048724
682.80	0.0046997
683.00	0.0049070
683.20	0.0044405
683.40	0.0046306
683.60	0.0051489
683.80	0.0047861
684.00	0.0047861
684.20	0.0046478
684.40	0.0049416
684.60	0.0045787
684.80	0.0047169
685.00	0.0046651
685.20	0.0043368
685.40	0.0048379
685.60	0.0048379
685.80	0.0047861
686.00	0.0051835
686.20	0.0053217
686.40	0.0049416
686.60	0.0050798
686.80	0.0050971
687.00	0.0051489
687.20	0.0050625
687.40	0.0051662
687.60	0.0049070
687.80	0.0048552
688.00	0.0048379
688.20	0.0049934
688.40	0.0050452
688.60	0.0045787
688.80	0.0046306
689.00	0.0046651
689.20	0.0046306
689.40	0.0040777
689.60	0.0046651
689.80	0.0041295
690.00	0.0043887
690.20	0.0041295
690.40	0.0043887
690.60	0.0038358
690.80	0.0040777
691.00	0.0044059
691.20	0.0042677
691.40	0.0039567
691.60	0.0043714
691.80	0.0043368
692.00	0.0039049
692.20	0.0042159
692.40	0.0039913
692.60	0.0035766
692.80	0.0039567
693.00	0.0036284
693.20	0.0032483
693.40	0.0036111
693.60	0.0035420
693.80	0.0035247
694.00	0.0033520
694.20	0.0038185
694.40	0.0040258
694.60	0.0044059
694.80	0.0043195
695.00	0.0040949
695.20	0.0039913
695.40	0.0041468
695.60	0.0041813
695.80	0.0036630
696.00	0.0038703
696.20	0.0038358
696.40	0.0040777
696.60	0.0043195
696.80	0.0042332
697.00	0.0041122
697.20	0.0040777
697.40	0.0036111
697.60	0.0041468
697.80	0.0040431
698.00	0.0035075
698.20	0.0033347
698.40	0.0036630
698.60	0.0037839
698.80	0.0037494
699.00	0.0041468
699.20	0.0030064
699.40	0.0034384
699.60	0.0037321
699.80	0.0040431
700.00	0.0040949
700.20	0.0038530
700.40	0.0040604
700.60	0.0031965
700.80	0.0035939
701.00	0.0035939
701.20	0.0038358
701.40	0.0040085
701.60	0.0036803
701.80	0.0034038
702.00	0.0035075
702.20	0.0035247
702.40	0.0035420
702.60	0.0038358
702.80	0.0042677
703.00	0.0036111
703.20	0.0037148
703.40	0.0037666
703.60	0.0034384
703.80	0.0027472
704.00	0.0029891
704.20	0.0035420
704.40	0.0031446
704.60	0.0037148
704.80	0.0039740
705.00	0.0040258
705.20	0.0036284
705.40	0.0030064
705.60	0.0034729
705.80	0.0038012
706.00	0.0039740
706.20	0.0034211
706.40	0.0036284
706.60	0.0034729
706.80	0.0034211
707.00	0.0033865
707.20	0.0039049
707.40	0.0034902
707.60	0.0031101
707.80	0.0028163
708.00	0.0030928
708.20	0.0035075
708.40	0.0041295
708.60	0.0035247
708.80	0.0035593
709.00	0.0034384
709.20	0.0036975
709.40	0.0031446
709.60	0.0032310
709.80	0.0030064
710.00	0.0033520
710.20	0.0042677
710.40	0.0035939
710.60	0.0033692
710.80	0.0036630
711.00	0.0031101
711.20	0.0039221
711.40	0.0032829
711.60	0.0034038
711.80	0.0033692
712.00	0.0034556
712.20	0.0037148
712.40	0.0032656
712.60	0.0031446
712.80	0.0033001
713.00	0.0031274
713.20	0.0032310
713.40	0.0038012
713.60	0.0033865
713.80	0.0031446
714.00	0.0038012
714.20	0.0033174
714.40	0.0036111
714.60	0.0035420
714.80	0.0034556
715.00	0.0036111
715.20	0.0029200
715.40	0.0033174
715.60	0.0026090
715.80	0.0030410
716.00	0.0031274
716.20	0.0031101
716.40	0.0026608
716.60	0.0031446
716.80	0.0035939
717.00	0.0034384
717.20	0.0037839
717.40	0.0027127
717.60	0.0033520
717.80	0.0031619
718.00	0.0028336
718.20	0.0040949
718.40	0.0029891
718.60	0.0026436
718.80	0.0036284
719.00	0.0029200
719.20	0.0031792
719.40	0.0032656
719.60	0.0029546
719.80	0.0032656
720.00	0.0024017
720.20	0.0023498
720.40	0.0034556
720.60	0.0039567
720.80	0.0031792
721.00	0.0032310
721.20	0.0038530
721.40	0.0034556
721.60	0.0031619
721.80	0.0035420
722.00	0.0032137
722.20	0.0029718
722.40	0.0030928
722.60	0.0032829
722.80	0.0035939
723.00	0.0030410
723.20	0.0032483
723.40	0.0033347
723.60	0.0032137
723.80	0.0035247
724.00	0.0027991
724.20	0.0031101
724.40	0.0035075
724.60	0.0033520
724.80	0.0028163
725.00	0.0028682
725.20	0.0033347
725.40	0.0038185
725.60	0.0028336
725.80	0.0027645
726.00	0.0034038
726.20	0.0031965
726.40	0.0031101
726.60	0.0032483
726.80	0.0024535
727.00	0.0029891
727.20	0.0037839
727.40	0.0029718
727.60	0.0030064
727.80	0.0038876
728.00	0.0029891
728.20	0.0029718
728.40	0.0029718
728.60	0.0029546
728.80	0.0029027
729.00	0.0035247
729.20	0.0031619
729.40	0.0031792
729.60	0.0025744
729.80	0.0020215
730.00	0.0025572
730.20	0.0026436
730.40	0.0019697
730.60	0.0029373
730.80	0.0032829
731.00	0.0024017
731.20	0.0025226
731.40	0.0029373
731.60	0.0030237
731.80	0.0028855
732.00	0.0034384
732.20	0.0035247
732.40	0.0027818
732.60	0.0033174
732.80	0.0035766
733.00	0.0026954
733.20	0.0034902
733.40	0.0028336
733.60	0.0030582
733.80	0.0031101
734.00	0.0030064
734.20	0.0028682
734.40	0.0032483
734.60	0.0025572
734.80	0.0027300
735.00	0.0024708
735.20	0.0024189
735.40	0.0036111
735.60	0.0028163
735.80	0.0029200
736.00	0.0034211
736.20	0.0032310
736.40	0.0025053
736.60	0.0029027
736.80	0.0035593
737.00	0.0027472
737.20	0.0035420
737.40	0.0023671
737.60	0.0030237
737.80	0.0038703
738.00	0.0026090
738.20	0.0028855
738.40	0.0033865
738.60	0.0032656
738.80	0.0027472
739.00	0.0030582
739.20	0.0035939
739.40	0.0028163
739.60	0.0030928
739.80	0.0033174
740.00	0.0024017
740.20	0.0031274
740.40	0.0031446
740.60	0.0034729
740.80	0.0025053
741.00	0.0030928
741.20	0.0021425
741.40	0.0025572
741.60	0.0026436
741.80	0.0028855
742.00	0.0030410
742.20	0.0029373
742.40	0.0022980
742.60	0.0033174
742.80	0.0027127
743.00	0.0033865
743.20	0.0025572
743.40	0.0021771
743.60	0.0025572
743.80	0.0024017
744.00	0.0024362
744.20	0.0032656
744.40	0.0027127
744.60	0.0024708
744.80	0.0025399
745.00	0.0028855
745.20	0.0024881
745.40	0.0021252
745.60	0.0022807
745.80	0.0029373
746.00	0.0023498
746.20	0.0021943
746.40	0.0031274
746.60	0.0031446
746.80	0.0020561
747.00	0.0024362
747.20	0.0028163
747.40	0.0032137
747.60	0.0023671
747.80	0.0026608
748.00	0.0026436
748.20	0.0023671
748.40	0.0028855
748.60	0.0025399
748.80	0.0026608
749.00	0.0029200
749.20	0.0027472
749.40	0.0026436
749.60	0.0024189
749.80	0.0020043
750.00	0.0027645
750.20	0.0031792
750.40	0.0023844
750.60	0.0030755
750.80	0.0026781
751.00	0.0027472
751.20	0.0022634
751.40	0.0030928
751.60	0.0023671
751.80	0.0022807
752.00	0.0027991
752.20	0.0028682
752.40	0.0026954
752.60	0.0033001
752.80	0.0024017
753.00	0.0030582
753.20	0.0027300
753.40	0.0021425
753.60	0.0029546
753.80	0.0025053
754.00	0.0028855
754.20	0.0025399
754.40	0.0030582
754.60	0.0025572
754.80	0.0027645
755.00	0.0025226
755.20	0.0028855
755.40	0.0025572
755.60	0.0024881
755.80	0.0027991
756.00	0.0023326
756.20	0.0022807
756.40	0.0033174
756.60	0.0022462
756.80	0.0023844
757.00	0.0028682
757.20	0.0023153
757.40	0.0020907
757.60	0.0019524
757.80	0.0019870
758.00	0.0022289
758.20	0.0021252
758.40	0.0022980
758.60	0.0021252
758.80	0.0029200
759.00	0.0017797
759.20	0.0024189
759.40	0.0025917
759.60	0.0020043
759.80	0.0025053
760.00	0.0020388
760.20	0.0025917
760.40	0.0018315
760.60	0.0020043
760.80	0.0022634
761.00	0.0013477
761.20	0.0022462
761.40	0.0023153
761.60	0.0023671
761.80	0.0023671
762.00	0.0023671
762.20	0.0022289
762.40	0.0025572
762.60	0.0021598
762.80	0.0019524
763.00	0.0025053
763.20	0.0020907
763.40	0.0018660
763.60	0.0020907
763.80	0.0020734
764.00	0.0020215
764.20	0.0025399
764.40	0.0024708
764.60	0.0022289
764.80	0.0016760
765.00	0.0021598
765.20	0.0017451
765.40	0.0024881
765.60	0.0022462
765.80	0.0019697
766.00	0.0017278
766.20	0.0019697
766.40	0.0013650
766.60	0.0027818
766.80	0.0028336
767.00	0.0026954
767.20	0.0021943
767.40	0.0024362
767.60	0.0023844
767.80	0.0021943
768.00	0.0021079
768.20	0.0025399
768.40	0.0026090
768.60	0.0021771
768.80	0.0023153
769.00	0.0017969
769.20	0.0014168
769.40	0.0027991
769.60	0.0027645
769.80	0.0026781
770.00	0.0027645
770.20	0.0022462
770.40	0.0024362
770.60	0.0021252
770.80	0.0024535
771.00	0.0026090
771.20	0.0024362
771.40	0.0021598
771.60	0.0027991
771.80	0.0022807
772.00	0.0020907
772.20	0.0012440
772.40	0.0018833
772.60	0.0020561
772.80	0.0020907
773.00	0.0021252
773.20	0.0016069
773.40	0.0023326
773.60	0.0023498
773.80	0.0021598
774.00	0.0016241
774.20	0.0021598
774.40	0.0020043
774.60	0.0014341
774.80	0.0022116
775.00	0.0018315
775.20	0.0017797
775.40	0.0018488
775.60	0.0016414
775.80	0.0019697
776.00	0.0020388
776.20	0.0021598
776.40	0.0016241
776.60	0.0017624
776.80	0.0019006
777.00	0.0019179
777.20	0.0013823
777.40	0.0015032
777.60	0.0014341
777.80	0.0017105
778.00	0.0021252
778.20	0.0021598
778.40	0.0019006
778.60	0.0019352
778.80	0.0016069
779.00	0.0018488
779.20	0.0024881
779.40	0.0012959
779.60	0.0015378
779.80	0.0019870
780.00	0.0019524
780.20	0.0020561
780.40	0.0016069
780.60	0.0011231
780.80	0.0014514
781.00	0.0024017
781.20	0.0019352
781.40	0.0020215
781.60	0.0020215
781.80	0.0022116
782.00	0.0018833
782.20	0.0019352
782.40	0.0025226
782.60	0.0020215
782.80	0.0019179
783.00	0.0021598
783.20	0.0018142
783.40	0.0024362
783.60	0.0021079
783.80	0.0020215
784.00	0.0023498
784.20	0.0025053
784.40	0.0025399
784.60	0.0023153
784.80	0.0020215
785.00	0.0022980
785.20	0.0021943
785.40	0.0027818
785.60	0.0019870
785.80	0.0020907
786.00	0.0024881
786.20	0.0024189
786.40	0.0020561
786.60	0.0025572
786.80	0.0023326
787.00	0.0016414
787.20	0.0016587
787.40	0.0015723
787.60	0.0013650
787.80	0.0021598
788.00	0.0020561
788.20	0.0018833
788.40	0.0018488
788.60	0.0017278
788.80	0.0019697
789.00	0.0018833
789.20	0.0015896
789.40	0.0020734
789.60	0.0019697
789.80	0.0018315
790.00	0.0018660
790.20	0.0012786
790.40	0.0017624
790.60	0.0021252
790.80	0.0018833
791.00	0.0017797
791.20	0.0015723
791.40	0.0018660
791.60	0.0021079
791.80	0.0016241
792.00	0.0013477
792.20	0.0019179
792.40	0.0016587
792.60	0.0012440
792.80	0.0016069
793.00	0.0012268
793.20	0.0015032
793.40	0.0016241
793.60	0.0013477
793.80	0.00088119
794.00	0.0012613
794.20	0.00095030
794.40	0.00084663
794.60	0.0015032
794.80	0.0017451
795.00	0.0013650
795.20	0.0015550
795.40	0.0014686
795.60	0.0011058
795.80	0.0011922
796.00	0.0012095
796.20	0.0010885
796.40	0.00051835
796.60	0.00077752
796.80	0.00043195
797.00	0.00024189
797.20	0.00038012
797.40	0.00041468
797.60	0.00031101
797.80	0.00038012
798.00	0.00067385
798.20	0.00015550
798.40	0.00053562
798.60	0.00050107
798.80	0.00093302
799.00	0.00060474
799.20	0.00072568
799.40	0.00050107
799.60	-6.9112e-05
799.80	0.00050107
800.00	0.00088119
