Wavelength (nm)	Q01 abs N
300.00	0.050141
300.25	0.053928
300.50	0.052440
300.75	0.051422
301.00	0.049924
301.25	0.053583
301.50	0.053859
301.75	0.052185
302.00	0.047730
302.25	0.052598
302.50	0.056388
302.75	0.048201
303.00	0.046964
303.25	0.051118
303.50	0.049502
303.75	0.048343
304.00	0.050800
304.25	0.047709
304.50	0.051102
304.75	0.051735
305.00	0.049369
305.25	0.053151
305.50	0.054501
305.75	0.052491
306.00	0.046359
306.25	0.052651
306.50	0.044047
306.75	0.054208
307.00	0.049045
307.25	0.047374
307.50	0.053017
307.75	0.051546
308.00	0.047575
308.25	0.049549
308.50	0.049046
308.75	0.049152
309.00	0.053622
309.25	0.051203
309.50	0.050457
309.75	0.049664
310.00	0.049218
310.25	0.053037
310.50	0.050389
310.75	0.055128
311.00	0.049387
311.25	0.051820
311.50	0.049097
311.75	0.051328
312.00	0.045257
312.25	0.051755
312.50	0.054774
312.75	0.054087
313.00	0.048683
313.25	0.050783
313.50	0.046759
313.75	0.047600
314.00	0.056751
314.25	0.051813
314.50	0.049704
314.75	0.054182
315.00	0.054940
315.25	0.055954
315.50	0.050442
315.75	0.051542
316.00	0.052796
316.25	0.052521
316.50	0.052893
316.75	0.048444
317.00	0.057827
317.25	0.049273
317.50	0.059784
317.75	0.048659
318.00	0.055976
318.25	0.061849
318.50	0.051453
318.75	0.054452
319.00	0.055200
319.25	0.054563
319.50	0.057811
319.75	0.061578
320.00	0.060445
320.25	0.054673
320.50	0.058399
320.75	0.054487
321.00	0.057952
321.25	0.056367
321.50	0.055361
321.75	0.057694
322.00	0.059424
322.25	0.058331
322.50	0.054826
322.75	0.059090
323.00	0.060779
323.25	0.060250
323.50	0.057664
323.75	0.055126
324.00	0.061241
324.25	0.059049
324.50	0.056944
324.75	0.063601
325.00	0.063708
325.25	0.062259
325.50	0.059257
325.75	0.063763
326.00	0.061148
326.25	0.066289
326.50	0.066363
326.75	0.064934
327.00	0.063166
327.25	0.066836
327.50	0.068093
327.75	0.072622
328.00	0.063125
328.25	0.070638
328.50	0.070370
328.75	0.069869
329.00	0.067203
329.25	0.065022
329.50	0.069479
329.75	0.073454
330.00	0.074796
330.25	0.072448
330.50	0.078445
330.75	0.070315
331.00	0.078072
331.25	0.076979
331.50	0.080414
331.75	0.086747
332.00	0.085879
332.25	0.086419
332.50	0.083320
332.75	0.083798
333.00	0.086703
333.25	0.087138
333.50	0.082748
333.75	0.083982
334.00	0.086991
334.25	0.085917
334.50	0.085260
334.75	0.087366
335.00	0.093919
335.25	0.089752
335.50	0.087195
335.75	0.092663
336.00	0.097010
336.25	0.097207
336.50	0.090488
336.75	0.096380
337.00	0.091268
337.25	0.096489
337.50	0.095018
337.75	0.095749
338.00	0.095966
338.25	0.099241
338.50	0.10104
338.75	0.095545
339.00	0.097925
339.25	0.097223
339.50	0.10255
339.75	0.10356
340.00	0.10117
340.25	0.096870
340.50	0.10036
340.75	0.093562
341.00	0.099565
341.25	0.10349
341.50	0.099866
341.75	0.097799
342.00	0.10169
342.25	0.098622
342.50	0.098497
342.75	0.10343
343.00	0.10286
343.25	0.11171
343.50	0.097684
343.75	0.10771
344.00	0.10610
344.25	0.10439
344.50	0.10369
344.75	0.10381
345.00	0.10609
345.25	0.10760
345.50	0.10742
345.75	0.10592
346.00	0.10793
346.25	0.11314
346.50	0.11374
346.75	0.10687
347.00	0.11849
347.25	0.11284
347.50	0.11593
347.75	0.11631
348.00	0.11223
348.25	0.11784
348.50	0.11605
348.75	0.11865
349.00	0.11380
349.25	0.11818
349.50	0.11393
349.75	0.11493
350.00	0.11567
350.25	0.11933
350.50	0.11594
350.75	0.11855
351.00	0.12370
351.25	0.11839
351.50	0.12049
351.75	0.12245
352.00	0.12338
352.25	0.12155
352.50	0.12369
352.75	0.12381
353.00	0.12368
353.25	0.12359
353.50	0.12521
353.75	0.12497
354.00	0.12784
354.25	0.13129
354.50	0.12774
354.75	0.12484
355.00	0.12823
355.25	0.12651
355.50	0.12920
355.75	0.12888
356.00	0.13299
356.25	0.12899
356.50	0.13064
356.75	0.13287
357.00	0.12650
357.25	0.12907
357.50	0.13031
357.75	0.12919
358.00	0.13163
358.25	0.13165
358.50	0.13138
358.75	0.13263
359.00	0.13209
359.25	0.12943
359.50	0.13040
359.75	0.12836
360.00	0.13300
360.25	0.12915
360.50	0.13050
360.75	0.13224
361.00	0.13163
361.25	0.13002
361.50	0.13121
361.75	0.13220
362.00	0.13418
362.25	0.13167
362.50	0.13412
362.75	0.13388
363.00	0.13666
363.25	0.13249
363.50	0.13574
363.75	0.13581
364.00	0.13686
364.25	0.13717
364.50	0.14151
364.75	0.13993
365.00	0.14096
365.25	0.14566
365.50	0.14199
365.75	0.14255
366.00	0.14514
366.25	0.14601
366.50	0.15020
366.75	0.14760
367.00	0.15128
367.25	0.15289
367.50	0.15417
367.75	0.15768
368.00	0.15921
368.25	0.16180
368.50	0.16364
368.75	0.16684
369.00	0.16901
369.25	0.17517
369.50	0.17596
369.75	0.17468
370.00	0.17949
370.25	0.18225
370.50	0.18598
370.75	0.19047
371.00	0.19166
371.25	0.19956
371.50	0.19977
371.75	0.20365
372.00	0.20773
372.25	0.21096
372.50	0.21467
372.75	0.21593
373.00	0.21897
373.25	0.22330
373.50	0.22749
373.75	0.23169
374.00	0.23443
374.25	0.23794
374.50	0.24668
374.75	0.25285
375.00	0.25486
375.25	0.26009
375.50	0.26687
375.75	0.26910
376.00	0.27535
376.25	0.28014
376.50	0.28318
376.75	0.29557
377.00	0.30074
377.25	0.30514
377.50	0.30759
377.75	0.31642
378.00	0.31923
378.25	0.32237
378.50	0.33098
378.75	0.33668
379.00	0.34189
379.25	0.34745
379.50	0.35060
379.75	0.35631
380.00	0.35900
380.25	0.36200
380.50	0.36905
380.75	0.37911
381.00	0.37977
381.25	0.38745
381.50	0.39536
381.75	0.40169
382.00	0.40929
382.25	0.41037
382.50	0.41997
382.75	0.42321
383.00	0.43013
383.25	0.43744
383.50	0.44531
383.75	0.45332
384.00	0.45937
384.25	0.46526
384.50	0.47652
384.75	0.48637
385.00	0.49226
385.25	0.50094
385.50	0.51042
385.75	0.52063
386.00	0.53528
386.25	0.54254
386.50	0.55171
386.75	0.56745
387.00	0.57216
387.25	0.58554
387.50	0.59728
387.75	0.61095
388.00	0.61811
388.25	0.63364
388.50	0.64946
388.75	0.65832
389.00	0.67093
389.25	0.68412
389.50	0.69539
389.75	0.70936
390.00	0.72487
390.25	0.73665
390.50	0.75105
390.75	0.76041
391.00	0.77639
391.25	0.78819
391.50	0.80051
391.75	0.81998
392.00	0.82929
392.25	0.84690
392.50	0.86321
392.75	0.88108
393.00	0.89580
393.25	0.90279
393.50	0.92367
393.75	0.93347
394.00	0.94287
394.25	0.95943
394.50	0.96754
394.75	0.97992
395.00	0.99085
395.25	0.99528
395.50	0.99822
395.75	0.99928
396.00	0.99395
396.25	1.0000
396.50	0.99534
396.75	0.98728
397.00	0.97764
397.25	0.97068
397.50	0.96261
397.75	0.93932
398.00	0.92849
398.25	0.90513
398.50	0.88400
398.75	0.86672
399.00	0.84113
399.25	0.81747
399.50	0.79591
399.75	0.76915
400.00	0.74183
400.25	0.72579
400.50	0.69425
400.75	0.66750
401.00	0.64364
401.25	0.62004
401.50	0.59070
401.75	0.57019
402.00	0.54669
402.25	0.52512
402.50	0.49972
402.75	0.47753
403.00	0.46026
403.25	0.43751
403.50	0.41820
403.75	0.39656
404.00	0.37593
404.25	0.36123
404.50	0.34320
404.75	0.32600
405.00	0.31139
405.25	0.29594
405.50	0.28282
405.75	0.26961
406.00	0.25310
406.25	0.24391
406.50	0.23115
406.75	0.21917
407.00	0.20719
407.25	0.19637
407.50	0.18690
407.75	0.17844
408.00	0.17087
408.25	0.16042
408.50	0.15287
408.75	0.14474
409.00	0.13837
409.25	0.13189
409.50	0.12503
409.75	0.12036
410.00	0.11319
410.25	0.10758
410.50	0.10229
410.75	0.097414
411.00	0.094594
411.25	0.089759
411.50	0.084919
411.75	0.083142
412.00	0.079785
412.25	0.075777
412.50	0.072292
412.75	0.072783
413.00	0.069229
413.25	0.065480
413.50	0.062727
413.75	0.061678
414.00	0.060434
414.25	0.056087
414.50	0.052381
414.75	0.052324
415.00	0.049308
415.25	0.047510
415.50	0.046261
415.75	0.043310
416.00	0.041314
416.25	0.039919
416.50	0.039215
416.75	0.038890
417.00	0.037571
417.25	0.035864
417.50	0.033256
417.75	0.032310
418.00	0.031476
418.25	0.029831
418.50	0.028799
418.75	0.026666
419.00	0.027175
419.25	0.026890
419.50	0.026531
419.75	0.026583
420.00	0.024696
420.25	0.023487
420.50	0.022042
420.75	0.021069
421.00	0.022000
421.25	0.020959
421.50	0.019756
421.75	0.019202
422.00	0.019668
422.25	0.018050
422.50	0.016171
422.75	0.017227
423.00	0.017896
423.25	0.016129
423.50	0.016317
423.75	0.015718
424.00	0.014576
424.25	0.014471
424.50	0.014012
424.75	0.014147
425.00	0.012392
425.25	0.013055
425.50	0.012373
425.75	0.012789
426.00	0.013119
426.25	0.012822
426.50	0.012317
426.75	0.011368
427.00	0.011184
427.25	0.012829
427.50	0.010700
427.75	0.011022
428.00	0.011895
428.25	0.011880
428.50	0.0091829
428.75	0.010210
429.00	0.011406
429.25	0.011822
429.50	0.0086356
429.75	0.010243
430.00	0.0076395
430.25	0.010489
430.50	0.0089422
430.75	0.0090153
431.00	0.0094695
431.25	0.0095340
431.50	0.0089781
431.75	0.0084208
432.00	0.010174
432.25	0.0083211
432.50	0.0092015
432.75	0.0083836
433.00	0.0095213
433.25	0.0084069
433.50	0.0087925
433.75	0.0079068
434.00	0.0079567
434.25	0.0069779
434.50	0.0084760
434.75	0.0078284
435.00	0.0077486
435.25	0.0081595
435.50	0.0058136
435.75	0.0071641
436.00	0.0052484
436.25	0.0059080
436.50	0.0077240
436.75	0.0085346
437.00	0.0079015
437.25	0.0050901
437.50	0.0071993
437.75	0.0067784
438.00	0.0068090
438.25	0.0053601
438.50	0.0059453
438.75	0.0073303
439.00	0.0085764
439.25	0.0069620
439.50	0.0068556
439.75	0.0084541
440.00	0.0064087
440.25	0.0059100
440.50	0.0065730
440.75	0.0081575
441.00	0.0067060
441.25	0.0057152
441.50	0.0074155
441.75	0.0057498
442.00	0.0058921
442.25	0.0049591
442.50	0.0059127
442.75	0.0065843
443.00	0.0065889
443.25	0.0065903
443.50	0.0056700
443.75	0.0071229
444.00	0.0064633
444.25	0.0060078
444.50	0.0068469
444.75	0.0066807
445.00	0.0052630
445.25	0.0077606
445.50	0.0061467
445.75	0.0065763
446.00	0.0058089
446.25	0.0052863
446.50	0.0059925
446.75	0.0060237
447.00	0.0066075
447.25	0.0073270
447.50	0.0074015
447.75	0.0066248
448.00	0.0057671
448.25	0.0070737
448.50	0.0061886
448.75	0.0051972
449.00	0.0069726
449.25	0.0062192
449.50	0.0047570
449.75	0.0071721
450.00	0.0076635
450.25	0.0051440
450.50	0.0056154
450.75	0.0055443
451.00	0.0061514
451.25	0.0060596
451.50	0.0058495
451.75	0.0058216
452.00	0.0058562
452.25	0.0071076
452.50	0.0064852
452.75	0.0070697
453.00	0.0059034
453.25	0.0066408
453.50	0.0066328
453.75	0.0061913
454.00	0.0077619
454.25	0.0069094
454.50	0.0062252
454.75	0.0068802
455.00	0.0066381
455.25	0.0077665
455.50	0.0069354
455.75	0.0072592
456.00	0.0063688
456.25	0.0078796
456.50	0.0086256
456.75	0.0072412
457.00	0.0089488
457.25	0.0080997
457.50	0.0074041
457.75	0.0066202
458.00	0.0073862
458.25	0.0066621
458.50	0.0069360
458.75	0.0086609
459.00	0.0086276
459.25	0.0084687
459.50	0.0072545
459.75	0.0077100
460.00	0.0095193
460.25	0.0082134
460.50	0.010297
460.75	0.0090146
461.00	0.0084986
461.25	0.0093092
461.50	0.0092766
461.75	0.0096098
462.00	0.0088132
462.25	0.0089821
462.50	0.0096902
462.75	0.0089082
463.00	0.0087999
463.25	0.0090692
463.50	0.0087280
463.75	0.0097487
464.00	0.0087573
464.25	0.0090831
464.50	0.010499
464.75	0.0085831
465.00	0.0086409
465.25	0.0090918
465.50	0.0084102
465.75	0.0090259
466.00	0.0096995
466.25	0.0088963
466.50	0.0088544
466.75	0.010487
467.00	0.0091044
467.25	0.010182
467.50	0.0097866
467.75	0.010064
468.00	0.0098179
468.25	0.010457
468.50	0.010658
468.75	0.010746
469.00	0.0099356
469.25	0.0098465
469.50	0.011452
469.75	0.011180
470.00	0.011436
470.25	0.011606
470.50	0.012657
470.75	0.012940
471.00	0.011930
471.25	0.012140
471.50	0.014016
471.75	0.013238
472.00	0.013538
472.25	0.013696
472.50	0.013200
472.75	0.013899
473.00	0.014278
473.25	0.014742
473.50	0.013540
473.75	0.015997
474.00	0.014908
474.25	0.016225
474.50	0.018128
474.75	0.018087
475.00	0.019870
475.25	0.021395
475.50	0.022863
475.75	0.022556
476.00	0.023623
476.25	0.026322
476.50	0.029493
476.75	0.029167
477.00	0.031226
477.25	0.032209
477.50	0.033391
477.75	0.034369
478.00	0.035457
478.25	0.036964
478.50	0.039186
478.75	0.039835
479.00	0.039468
479.25	0.042064
479.50	0.043571
479.75	0.042990
480.00	0.044209
480.25	0.045843
480.50	0.047252
480.75	0.045948
481.00	0.048606
481.25	0.049137
481.50	0.049945
481.75	0.049786
482.00	0.051351
482.25	0.052322
482.50	0.052381
482.75	0.052283
483.00	0.053630
483.25	0.054868
483.50	0.054570
483.75	0.055765
484.00	0.054226
484.25	0.056196
484.50	0.057308
484.75	0.058082
485.00	0.057835
485.25	0.058639
485.50	0.059959
485.75	0.061119
486.00	0.060919
486.25	0.062729
486.50	0.063839
486.75	0.064470
487.00	0.065159
487.25	0.066887
487.50	0.066903
487.75	0.068339
488.00	0.069620
488.25	0.069278
488.50	0.069527
488.75	0.070676
489.00	0.068957
489.25	0.070002
489.50	0.069313
489.75	0.070223
490.00	0.068953
490.25	0.068905
490.50	0.068235
490.75	0.066913
491.00	0.068955
491.25	0.068105
491.50	0.066013
491.75	0.064539
492.00	0.064940
492.25	0.064867
492.50	0.063180
492.75	0.063784
493.00	0.062039
493.25	0.060924
493.50	0.058844
493.75	0.059225
494.00	0.058975
494.25	0.059172
494.50	0.055984
494.75	0.054755
495.00	0.053336
495.25	0.053605
495.50	0.051786
495.75	0.050814
496.00	0.048565
496.25	0.048854
496.50	0.047784
496.75	0.046027
497.00	0.044497
497.25	0.043570
497.50	0.041576
497.75	0.041611
498.00	0.040139
498.25	0.038887
498.50	0.038259
498.75	0.037408
499.00	0.036236
499.25	0.035015
499.50	0.035755
499.75	0.033111
500.00	0.032521
500.25	0.030595
500.50	0.030480
500.75	0.028432
501.00	0.027646
501.25	0.027792
501.50	0.026193
501.75	0.024755
502.00	0.024948
502.25	0.023174
502.50	0.023733
502.75	0.021744
503.00	0.020944
503.25	0.020191
503.50	0.020115
503.75	0.018232
504.00	0.018758
504.25	0.017606
504.50	0.018425
504.75	0.016483
505.00	0.016960
505.25	0.015911
505.50	0.016034
505.75	0.014284
506.00	0.014522
506.25	0.014869
506.50	0.014052
506.75	0.014304
507.00	0.014180
507.25	0.013881
507.50	0.011810
507.75	0.012512
508.00	0.011662
508.25	0.013369
508.50	0.010662
508.75	0.011549
509.00	0.012024
509.25	0.011065
509.50	0.010892
509.75	0.011593
510.00	0.010323
510.25	0.010519
510.50	0.010378
510.75	0.010866
511.00	0.0093265
511.25	0.010326
511.50	0.0097122
511.75	0.0093072
512.00	0.0091057
512.25	0.0092381
512.50	0.0092527
512.75	0.0086064
513.00	0.0089362
513.25	0.0084528
513.50	0.0099043
513.75	0.0098897
514.00	0.0094761
514.25	0.0096450
514.50	0.0094103
514.75	0.0094934
515.00	0.0097780
515.25	0.011325
515.50	0.0099476
515.75	0.011925
516.00	0.010385
516.25	0.011595
516.50	0.011361
516.75	0.011167
517.00	0.011950
517.25	0.012647
517.50	0.011341
517.75	0.012493
518.00	0.010713
518.25	0.011740
518.50	0.011146
518.75	0.012502
519.00	0.013072
519.25	0.012616
519.50	0.013259
519.75	0.013640
520.00	0.011564
520.25	0.011292
520.50	0.012903
520.75	0.012208
521.00	0.010337
521.25	0.011019
521.50	0.011236
521.75	0.010769
522.00	0.010160
522.25	0.0097767
522.50	0.0098438
522.75	0.0088504
523.00	0.0089947
523.25	0.010575
523.50	0.0096510
523.75	0.0099469
524.00	0.0093371
524.25	0.0089681
524.50	0.0079687
524.75	0.0087307
525.00	0.0082440
525.25	0.0086742
525.50	0.0080585
525.75	0.0084388
526.00	0.0085226
526.25	0.0064772
526.50	0.0084913
526.75	0.0063841
527.00	0.0087859
527.25	0.0068283
527.50	0.0067498
527.75	0.0072964
528.00	0.0065204
528.25	0.0062584
528.50	0.0065670
528.75	0.0076242
529.00	0.0076582
529.25	0.0060949
529.50	0.0050137
529.75	0.0049379
530.00	0.0069553
530.25	0.0064952
530.50	0.0076136
530.75	0.0065730
531.00	0.0058043
531.25	0.0061620
531.50	0.0053302
531.75	0.0059679
532.00	0.0046546
532.25	0.0049066
532.50	0.0051613
532.75	0.0046061
533.00	0.0047896
533.25	0.0043966
533.50	0.0052743
533.75	0.0043481
534.00	0.0043514
534.25	0.0050502
534.50	0.0042842
534.75	0.0054732
535.00	0.0057046
535.25	0.0041266
535.50	0.0047331
535.75	0.0046253
536.00	0.0044970
536.25	0.0039345
536.50	0.0036745
536.75	0.0043521
537.00	0.0031113
537.25	0.0028313
537.50	0.0037423
537.75	0.0042470
538.00	0.0055702
538.25	0.0029144
538.50	0.0029417
538.75	0.0034617
539.00	0.0024410
539.25	0.0035954
539.50	0.0044744
539.75	0.0035721
540.00	0.0035176
540.25	0.0032263
540.50	0.0034710
540.75	0.0032729
541.00	0.0037124
541.25	0.0042330
541.50	0.0037443
541.75	0.0042889
542.00	0.0036539
542.25	0.0035448
542.50	0.0035614
542.75	0.0047085
543.00	0.0046533
543.25	0.0031512
543.50	0.0039990
543.75	0.0049013
544.00	0.0023193
544.25	0.0042078
544.50	0.0046480
544.75	0.0044425
545.00	0.0036186
545.25	0.0039877
545.50	0.0034424
545.75	0.0038560
546.00	0.0032768
546.25	0.0040169
546.50	0.0043161
546.75	0.0054087
547.00	0.0043667
547.25	0.0048634
547.50	0.0052544
547.75	0.0055676
548.00	0.0055968
548.25	0.0049252
548.50	0.0049478
548.75	0.0047065
549.00	0.0043853
549.25	0.0047836
549.50	0.0046606
549.75	0.0056972
550.00	0.0048188
550.25	0.0053721
550.50	0.0074075
550.75	0.0077147
551.00	0.0066807
551.25	0.0065816
551.50	0.0078011
551.75	0.0088258
552.00	0.0076402
552.25	0.0081176
552.50	0.0079009
552.75	0.0086835
553.00	0.0089355
553.25	0.0090625
553.50	0.0099010
553.75	0.0085186
554.00	0.0091104
554.25	0.0095433
554.50	0.0094322
554.75	0.0094508
555.00	0.0090619
555.25	0.0090353
555.50	0.0098970
555.75	0.0085725
556.00	0.011057
556.25	0.0097487
556.50	0.010622
556.75	0.0095433
557.00	0.011400
557.25	0.011281
557.50	0.010802
557.75	0.011751
558.00	0.013300
558.25	0.013816
558.50	0.013680
558.75	0.015104
559.00	0.015483
559.25	0.016150
559.50	0.017181
559.75	0.018548
560.00	0.018274
560.25	0.019741
560.50	0.019159
560.75	0.020162
561.00	0.021671
561.25	0.021485
561.50	0.023720
561.75	0.022775
562.00	0.023377
562.25	0.024078
562.50	0.022695
562.75	0.024655
563.00	0.023860
563.25	0.023315
563.50	0.022937
563.75	0.024413
564.00	0.023302
564.25	0.022298
564.50	0.021035
564.75	0.021882
565.00	0.022193
565.25	0.020655
565.50	0.019620
565.75	0.019615
566.00	0.018916
566.25	0.018469
566.50	0.019749
566.75	0.018959
567.00	0.020751
567.25	0.018104
567.50	0.018966
567.75	0.019603
568.00	0.019272
568.25	0.019476
568.50	0.018795
568.75	0.019289
569.00	0.019031
569.25	0.020109
569.50	0.019133
569.75	0.019140
570.00	0.019140
570.25	0.019391
570.50	0.019023
570.75	0.019450
571.00	0.019648
571.25	0.019977
571.50	0.019013
571.75	0.018259
572.00	0.018828
572.25	0.018415
572.50	0.018572
572.75	0.018888
573.00	0.017843
573.25	0.017071
573.50	0.016794
573.75	0.015841
574.00	0.016521
574.25	0.014787
574.50	0.015826
574.75	0.014730
575.00	0.013657
575.25	0.013700
575.50	0.012579
575.75	0.012889
576.00	0.012145
576.25	0.011775
576.50	0.012240
576.75	0.011881
577.00	0.011496
577.25	0.011444
577.50	0.010620
577.75	0.010054
578.00	0.010045
578.25	0.0097594
578.50	0.010599
578.75	0.0092194
579.00	0.0090685
579.25	0.0093464
579.50	0.0088537
579.75	0.0087892
580.00	0.010233
580.25	0.0074095
580.50	0.0086064
580.75	0.0089096
581.00	0.0082912
581.25	0.0079541
581.50	0.0083085
581.75	0.0073556
582.00	0.0082160
582.25	0.0073496
582.50	0.0072765
582.75	0.0064160
583.00	0.0081476
583.25	0.0069640
583.50	0.0060131
583.75	0.0060417
584.00	0.0064652
584.25	0.0066687
584.50	0.0061567
584.75	0.0049286
585.00	0.0053701
585.25	0.0056620
585.50	0.0052590
585.75	0.0057611
586.00	0.0058821
586.25	0.0040462
586.50	0.0048115
586.75	0.0050901
587.00	0.0049179
587.25	0.0038420
587.50	0.0054725
587.75	0.0056740
588.00	0.0045003
588.25	0.0044491
588.50	0.0033467
588.75	0.0048720
589.00	0.0048321
589.25	0.0045170
589.50	0.0050755
589.75	0.0052597
590.00	0.0030820
590.25	0.0030960
590.50	0.0040136
590.75	0.0033673
591.00	0.0050502
591.25	0.0054093
591.50	0.0039937
591.75	0.0035787
592.00	0.0042743
592.25	0.0035176
592.50	0.0032343
592.75	0.0029357
593.00	0.0038234
593.25	0.0032908
593.50	0.0027688
593.75	0.0012740
594.00	0.0023087
594.25	0.0033932
594.50	0.0042676
594.75	0.0025022
595.00	0.0029078
595.25	0.0026717
595.50	0.0020267
595.75	0.0025534
596.00	0.0026019
596.25	0.0023725
596.50	0.0034411
596.75	0.0033314
597.00	0.0032802
597.25	0.0032469
597.50	0.0029151
597.75	0.00058715
598.00	0.0028333
598.25	0.0034145
598.50	0.0017109
598.75	0.0040209
599.00	0.0026957
599.25	0.0031259
599.50	0.0031359
599.75	0.0026977
600.00	0.0015254
600.25	0.0017215
600.50	0.0022588
600.75	0.0017960
601.00	0.0017854
601.25	0.0033759
601.50	0.0038613
601.75	0.0022468
602.00	0.0025793
602.25	0.0024397
602.50	0.0021318
602.75	0.0032363
603.00	0.0032675
603.25	0.0026378
603.50	0.0024164
603.75	0.0027781
604.00	0.0034145
604.25	0.0016956
604.50	0.0020779
604.75	0.0031665
605.00	0.0025341
605.25	0.0023945
605.50	0.0031937
605.75	0.0027030
606.00	0.0023645
606.25	0.0031345
606.50	0.0047583
606.75	0.0027948
607.00	0.0035940
607.25	0.0030667
607.50	0.0026930
607.75	0.0029696
608.00	0.0031658
608.25	0.0047690
608.50	0.0035043
608.75	0.0030268
609.00	0.0025368
609.25	0.0027429
609.50	0.0023805
609.75	0.0027090
610.00	0.0028599
610.25	0.0030747
610.50	0.0039298
610.75	0.0031166
611.00	0.0031691
611.25	0.0041193
611.50	0.0037124
611.75	0.0033433
612.00	0.0048647
612.25	0.0033294
612.50	0.0044285
612.75	0.0034384
613.00	0.0044744
613.25	0.0038188
613.50	0.0039238
613.75	0.0035501
614.00	0.0044092
614.25	0.0043268
614.50	0.0039491
614.75	0.0048288
615.00	0.0053528
615.25	0.0054279
615.50	0.0041772
615.75	0.0050336
616.00	0.0059739
616.25	0.0034710
616.50	0.0048361
616.75	0.0057684
617.00	0.0052670
617.25	0.0048720
617.50	0.0031020
617.75	0.0040814
618.00	0.0051181
618.25	0.0045828
618.50	0.0047929
618.75	0.0051846
619.00	0.0029331
619.25	0.0053129
619.50	0.0027163
619.75	0.0046227
620.00	0.0035501
620.25	0.0038633
620.50	0.0047829
620.75	0.0033467
621.00	0.0035661
621.25	0.0037523
621.50	0.0021524
621.75	0.0042975
622.00	0.0032815
622.25	0.0029703
622.50	0.0030441
622.75	0.0025135
623.00	0.0011490
623.25	0.0014975
623.50	0.0022023
623.75	0.0026392
624.00	0.0036253
624.25	0.00032981
624.50	0.0030468
624.75	0.0015633
625.00	-1.9949e-06
625.25	0.0020866
625.50	0.00063901
625.75	0.00078197
626.00	0.0017009
626.25	-0.00043221
626.50	0.0021245
626.75	0.0012421
627.00	0.00078463
627.25	0.0011377
627.50	0.00046014
627.75	0.00099476
628.00	0.0015786
628.25	0.0017681
628.50	0.0021245
628.75	0.0021976
629.00	0.0022655
629.25	0.00046812
629.50	0.00021810
629.75	0.00050403
630.00	0.0020228
630.25	0.0032675
630.50	0.00075205
630.75	0.00090432
631.00	0.0022568
631.25	0.0016544
631.50	9.5752e-05
631.75	0.00049405
632.00	0.00080059
632.25	0.0016657
632.50	-8.2453e-05
632.75	0.0031645
633.00	0.0021205
633.25	0.0017960
633.50	0.00070418
633.75	5.2531e-05
634.00	0.00052730
634.25	0.0026225
634.50	0.00080724
634.75	0.0012833
635.00	0.00087374
635.25	0.0025334
635.50	0.0031591
635.75	0.0011291
636.00	0.0016484
636.25	0.00087241
636.50	0.0025275
636.75	-4.7375e-11
637.00	0.00043022
637.25	0.0016863
637.50	0.0023699
637.75	0.0014629
638.00	0.0016271
638.25	0.00012102
638.50	0.0035501
638.75	0.0010945
639.00	0.00091031
639.25	0.00080392
639.50	-0.00017555
639.75	0.00071016
640.00	0.00089169
640.25	0.0014389
640.50	0.00094821
640.75	0.0013572
641.00	0.00076003
641.25	0.0023792
641.50	-0.00010240
641.75	0.0013611
642.00	0.0013059
642.25	0.0012082
642.50	-0.00030720
642.75	0.0028812
643.00	0.00082387
643.25	-0.00039963
643.50	-0.00014429
643.75	0.00087839
644.00	0.0019290
644.25	0.00039697
644.50	-0.00057717
644.75	-0.00022209
645.00	0.0014576
645.25	9.1762e-05
645.50	0.0010406
645.75	-0.00029590
646.00	0.00051932
646.25	0.00087706
646.50	0.0014044
646.75	0.00085445
647.00	0.0023692
647.25	0.0024443
647.50	0.00022409
647.75	0.00045216
648.00	0.00069686
648.25	0.00089767
648.50	0.00093491
648.75	0.0014243
649.00	0.0022103
649.25	0.0011610
649.50	0.00070152
649.75	0.0021325
650.00	0.0020567
650.25	0.0017641
650.50	0.0012833
650.75	0.00055656
651.00	0.0014197
651.25	0.00065829
651.50	0.0016683
651.75	0.0013239
652.00	0.0015108
652.25	0.00051799
652.50	-0.00037968
652.75	0.0015945
653.00	5.9180e-05
653.25	0.00080857
653.50	0.00081256
653.75	0.0012541
654.00	0.0028872
654.25	0.00090898
654.50	0.0011357
654.75	0.0017900
655.00	0.00016358
655.25	0.0015719
655.50	0.0014276
655.75	0.00038301
656.00	0.0015892
656.25	0.0020021
656.50	0.00087174
656.75	0.00097015
657.00	0.0014383
657.25	-0.00039564
657.50	0.0020646
657.75	0.0021205
658.00	-0.00025268
658.25	0.0012022
658.50	0.0019842
658.75	0.0010832
659.00	0.0014057
659.25	0.0014143
659.50	0.0013299
659.75	0.0025341
660.00	-0.00047277
660.25	-1.3299e-06
660.50	-5.5190e-05
660.75	0.0010347
661.00	0.00089967
661.25	-0.00014296
661.50	0.0030228
661.75	0.0011610
662.00	0.0013259
662.25	0.00056653
662.50	0.0025062
662.75	0.0025720
663.00	0.00015626
663.25	0.0016890
663.50	0.00050137
663.75	0.0016836
664.00	0.0011543
664.25	0.00051201
664.50	0.0018193
664.75	0.0013379
665.00	0.0018991
665.25	0.0015753
665.50	0.00057119
665.75	0.0014516
666.00	0.0011091
666.25	0.00099675
666.50	0.0026126
666.75	-0.00035641
667.00	0.00065098
667.25	0.00047942
667.50	0.0018293
667.75	-0.00072412
668.00	0.0020959
668.25	0.0025035
668.50	0.0023386
668.75	0.0012720
669.00	0.0012022
669.25	0.0022847
669.50	0.0010220
669.75	0.00053860
670.00	0.0031818
670.25	0.0029470
670.50	-0.00061906
670.75	0.0014343
671.00	-6.3170e-05
671.25	0.0030288
671.50	-0.0018751
671.75	0.0021424
672.00	0.0012341
672.25	0.00059778
672.50	0.00069886
672.75	0.0019563
673.00	0.0016524
673.25	0.0022615
673.50	0.00090033
673.75	0.00086642
674.00	0.00021478
674.25	0.0011417
674.50	0.00090632
674.75	0.0010014
675.00	0.00053129
675.25	0.0027436
675.50	0.0018439
675.75	0.00068556
676.00	6.4500e-05
676.25	0.0017887
676.50	0.0029251
676.75	0.0011763
677.00	0.00016690
677.25	0.00090765
677.50	0.0012940
677.75	0.00037902
678.00	0.0018731
678.25	0.0023034
678.50	0.0014090
678.75	0.0014542
679.00	0.0022309
679.25	-0.00070551
679.50	0.0020480
679.75	0.0028646
680.00	0.0020952
680.25	0.00010706
680.50	-0.00025866
680.75	0.00077865
681.00	0.0013299
681.25	0.00065297
681.50	-1.9283e-05
681.75	0.0017568
682.00	0.0010905
682.25	-0.00075139
682.50	0.00081389
682.75	0.0014270
683.00	0.0017156
683.25	0.00047543
683.50	0.0015427
683.75	0.0020387
684.00	0.0021125
684.25	0.00022808
684.50	1.8618e-05
684.75	0.00030055
685.00	0.0014409
685.25	-0.00027063
685.50	0.00071149
685.75	0.00032715
686.00	-0.00063436
686.25	0.0021232
686.50	0.00026398
686.75	0.00012567
687.00	0.00041625
687.25	0.0010612
687.50	0.0023286
687.75	-0.00080658
688.00	0.0010027
688.25	-0.00022941
688.50	0.0011543
688.75	0.00074806
689.00	0.0012388
689.25	0.0021192
689.50	0.0011756
689.75	0.00022941
690.00	0.00098412
690.25	0.0012501
690.50	0.00033247
690.75	-0.00054991
691.00	0.0018339
691.25	-0.00018618
691.50	0.0015407
691.75	0.00031851
692.00	0.0017428
692.25	0.0018339
692.50	0.00075471
692.75	0.00085312
693.00	0.00054326
693.25	-0.00044485
693.50	0.00019882
693.75	0.0015513
694.00	-0.00024736
694.25	0.00090100
694.50	0.00054991
694.75	0.00056986
695.00	0.0022355
695.25	0.0022681
695.50	8.6442e-06
695.75	-0.0010340
696.00	-0.0018904
696.25	0.00050669
696.50	-0.00023207
696.75	0.0014848
697.00	0.00097680
697.25	0.0032310
697.50	-0.00015826
697.75	0.00061374
698.00	0.0020766
698.25	0.0015400
698.50	0.0014050
698.75	-0.00050669
699.00	-0.00025268
699.25	0.00099476
699.50	0.00056520
699.75	0.00070085
700.00	-0.00015028
