Wavelength (nm)	Q19 abs N
300.00	0.028163
300.25	0.028647
300.50	0.026506
300.75	0.025590
301.00	0.031587
301.25	0.021605
301.50	0.031231
301.75	0.028295
302.00	0.030697
302.25	0.032413
302.50	0.027217
302.75	0.028308
303.00	0.032678
303.25	0.031386
303.50	0.026258
303.75	0.022673
304.00	0.022562
304.25	0.033025
304.50	0.029621
304.75	0.028966
305.00	0.028843
305.25	0.026930
305.50	0.028219
305.75	0.029338
306.00	0.026355
306.25	0.024725
306.50	0.025747
306.75	0.028610
307.00	0.026249
307.25	0.021376
307.50	0.028963
307.75	0.026656
308.00	0.033780
308.25	0.029579
308.50	0.029060
308.75	0.027205
309.00	0.027003
309.25	0.032689
309.50	0.029483
309.75	0.031171
310.00	0.031851
310.25	0.029013
310.50	0.035661
310.75	0.022355
311.00	0.027669
311.25	0.029222
311.50	0.023755
311.75	0.031222
312.00	0.024752
312.25	0.029514
312.50	0.033670
312.75	0.031092
313.00	0.029857
313.25	0.026688
313.50	0.036256
313.75	0.027527
314.00	0.036009
314.25	0.028267
314.50	0.032044
314.75	0.027820
315.00	0.033326
315.25	0.032903
315.50	0.036422
315.75	0.028006
316.00	0.035321
316.25	0.033947
316.50	0.030955
316.75	0.031523
317.00	0.032775
317.25	0.034826
317.50	0.032193
317.75	0.030494
318.00	0.025052
318.25	0.030369
318.50	0.032341
318.75	0.033409
319.00	0.032762
319.25	0.031695
319.50	0.031458
319.75	0.031516
320.00	0.031924
320.25	0.033312
320.50	0.035046
320.75	0.038290
321.00	0.036695
321.25	0.034108
321.50	0.035803
321.75	0.034339
322.00	0.034903
322.25	0.030885
322.50	0.036299
322.75	0.029984
323.00	0.030679
323.25	0.040905
323.50	0.039978
323.75	0.038612
324.00	0.042110
324.25	0.037305
324.50	0.032073
324.75	0.038768
325.00	0.034128
325.25	0.032351
325.50	0.027194
325.75	0.031265
326.00	0.040459
326.25	0.041255
326.50	0.037390
326.75	0.037502
327.00	0.046609
327.25	0.040794
327.50	0.040525
327.75	0.037527
328.00	0.039962
328.25	0.040242
328.50	0.041480
328.75	0.043798
329.00	0.052581
329.25	0.049600
329.50	0.037744
329.75	0.043668
330.00	0.045417
330.25	0.038064
330.50	0.039984
330.75	0.037606
331.00	0.040511
331.25	0.048640
331.50	0.042729
331.75	0.039242
332.00	0.045674
332.25	0.047553
332.50	0.042830
332.75	0.045970
333.00	0.040140
333.25	0.043626
333.50	0.042509
333.75	0.045964
334.00	0.050686
334.25	0.047708
334.50	0.049103
334.75	0.051729
335.00	0.043872
335.25	0.047717
335.50	0.045582
335.75	0.044847
336.00	0.047318
336.25	0.051479
336.50	0.045254
336.75	0.052315
337.00	0.047990
337.25	0.045548
337.50	0.049119
337.75	0.049021
338.00	0.049448
338.25	0.051939
338.50	0.047985
338.75	0.044687
339.00	0.056749
339.25	0.048135
339.50	0.049535
339.75	0.047029
340.00	0.050197
340.25	0.048560
340.50	0.053129
340.75	0.053680
341.00	0.052368
341.25	0.052417
341.50	0.052711
341.75	0.055708
342.00	0.055896
342.25	0.052120
342.50	0.055638
342.75	0.052164
343.00	0.056103
343.25	0.053217
343.50	0.057096
343.75	0.055617
344.00	0.057126
344.25	0.051841
344.50	0.057921
344.75	0.060987
345.00	0.051826
345.25	0.057409
345.50	0.053941
345.75	0.059186
346.00	0.060290
346.25	0.057530
346.50	0.053570
346.75	0.058748
347.00	0.058345
347.25	0.052071
347.50	0.063875
347.75	0.056016
348.00	0.054399
348.25	0.056941
348.50	0.061046
348.75	0.059743
349.00	0.056361
349.25	0.056669
349.50	0.059338
349.75	0.061989
350.00	0.059860
350.25	0.057889
350.50	0.061081
350.75	0.060987
351.00	0.060692
351.25	0.060403
351.50	0.063155
351.75	0.062393
352.00	0.063347
352.25	0.060746
352.50	0.061444
352.75	0.061143
353.00	0.063257
353.25	0.064531
353.50	0.062358
353.75	0.060304
354.00	0.064497
354.25	0.061166
354.50	0.061113
354.75	0.064599
355.00	0.063329
355.25	0.063581
355.50	0.058270
355.75	0.064691
356.00	0.065052
356.25	0.058696
356.50	0.057496
356.75	0.063063
357.00	0.061715
357.25	0.058366
357.50	0.063639
357.75	0.063123
358.00	0.061472
358.25	0.061375
358.50	0.058325
358.75	0.063316
359.00	0.062482
359.25	0.062243
359.50	0.063326
359.75	0.060869
360.00	0.056778
360.25	0.065192
360.50	0.061818
360.75	0.062096
361.00	0.065888
361.25	0.057717
361.50	0.062216
361.75	0.064346
362.00	0.058862
362.25	0.061007
362.50	0.060901
362.75	0.062900
363.00	0.059253
363.25	0.057005
363.50	0.057009
363.75	0.057744
364.00	0.060612
364.25	0.059369
364.50	0.057400
364.75	0.058421
365.00	0.058589
365.25	0.057613
365.50	0.057328
365.75	0.056359
366.00	0.056595
366.25	0.057150
366.50	0.056612
366.75	0.058510
367.00	0.060021
367.25	0.054064
367.50	0.055158
367.75	0.053726
368.00	0.054955
368.25	0.056559
368.50	0.054210
368.75	0.055112
369.00	0.051761
369.25	0.056002
369.50	0.051787
369.75	0.054233
370.00	0.056498
370.25	0.052870
370.50	0.051065
370.75	0.053083
371.00	0.053548
371.25	0.049798
371.50	0.048247
371.75	0.050881
372.00	0.050270
372.25	0.050108
372.50	0.049816
372.75	0.048221
373.00	0.050118
373.25	0.053264
373.50	0.044882
373.75	0.050411
374.00	0.047387
374.25	0.048225
374.50	0.046502
374.75	0.046828
375.00	0.046225
375.25	0.047472
375.50	0.044545
375.75	0.049592
376.00	0.046870
376.25	0.045056
376.50	0.045565
376.75	0.048264
377.00	0.046161
377.25	0.048811
377.50	0.043347
377.75	0.044266
378.00	0.044426
378.25	0.043313
378.50	0.040008
378.75	0.041871
379.00	0.044721
379.25	0.042103
379.50	0.041512
379.75	0.040990
380.00	0.039977
380.25	0.040187
380.50	0.041129
380.75	0.039168
381.00	0.042875
381.25	0.039446
381.50	0.040633
381.75	0.040874
382.00	0.040259
382.25	0.039847
382.50	0.040127
382.75	0.038761
383.00	0.038116
383.25	0.040463
383.50	0.036740
383.75	0.039658
384.00	0.038964
384.25	0.037602
384.50	0.035165
384.75	0.039340
385.00	0.037621
385.25	0.039492
385.50	0.039760
385.75	0.036984
386.00	0.035902
386.25	0.038612
386.50	0.038594
386.75	0.033917
387.00	0.035893
387.25	0.035105
387.50	0.037935
387.75	0.032969
388.00	0.038842
388.25	0.037316
388.50	0.037908
388.75	0.032840
389.00	0.034810
389.25	0.033931
389.50	0.034051
389.75	0.036129
390.00	0.034491
390.25	0.034728
390.50	0.033202
390.75	0.032820
391.00	0.033791
391.25	0.034885
391.50	0.034824
391.75	0.034088
392.00	0.034454
392.25	0.035510
392.50	0.034218
392.75	0.032933
393.00	0.035756
393.25	0.033608
393.50	0.031765
393.75	0.034563
394.00	0.031982
394.25	0.035338
394.50	0.036291
394.75	0.034942
395.00	0.034578
395.25	0.034977
395.50	0.035514
395.75	0.033359
396.00	0.034694
396.25	0.034647
396.50	0.036508
396.75	0.036678
397.00	0.034405
397.25	0.035343
397.50	0.034676
397.75	0.035150
398.00	0.036944
398.25	0.037047
398.50	0.036035
398.75	0.037811
399.00	0.037939
399.25	0.037128
399.50	0.037131
399.75	0.036313
400.00	0.037972
400.25	0.036788
400.50	0.037032
400.75	0.035387
401.00	0.039497
401.25	0.037223
401.50	0.038206
401.75	0.036875
402.00	0.037531
402.25	0.036927
402.50	0.039802
402.75	0.038694
403.00	0.040406
403.25	0.038180
403.50	0.038901
403.75	0.037819
404.00	0.040884
404.25	0.038623
404.50	0.038993
404.75	0.041724
405.00	0.040115
405.25	0.042228
405.50	0.039356
405.75	0.041513
406.00	0.042853
406.25	0.042540
406.50	0.042977
406.75	0.044425
407.00	0.043974
407.25	0.043560
407.50	0.045585
407.75	0.046866
408.00	0.045240
408.25	0.046470
408.50	0.048176
408.75	0.050612
409.00	0.048974
409.25	0.048766
409.50	0.049352
409.75	0.053482
410.00	0.053932
410.25	0.053767
410.50	0.055609
410.75	0.055882
411.00	0.058129
411.25	0.059998
411.50	0.061323
411.75	0.061068
412.00	0.063782
412.25	0.065600
412.50	0.064625
412.75	0.065991
413.00	0.067598
413.25	0.070848
413.50	0.069667
413.75	0.073423
414.00	0.075187
414.25	0.076181
414.50	0.077333
414.75	0.081367
415.00	0.084355
415.25	0.084971
415.50	0.086891
415.75	0.087725
416.00	0.090979
416.25	0.092906
416.50	0.097132
416.75	0.099186
417.00	0.10051
417.25	0.10347
417.50	0.10643
417.75	0.10672
418.00	0.10722
418.25	0.10998
418.50	0.11524
418.75	0.11588
419.00	0.11769
419.25	0.12003
419.50	0.12165
419.75	0.12351
420.00	0.12352
420.25	0.12732
420.50	0.12895
420.75	0.12995
421.00	0.13097
421.25	0.13284
421.50	0.13555
421.75	0.13555
422.00	0.13868
422.25	0.13907
422.50	0.14129
422.75	0.14173
423.00	0.14441
423.25	0.14578
423.50	0.14571
423.75	0.14622
424.00	0.14747
424.25	0.14566
424.50	0.14918
424.75	0.15041
425.00	0.14919
425.25	0.15224
425.50	0.15061
425.75	0.15239
426.00	0.15332
426.25	0.15189
426.50	0.15474
426.75	0.15575
427.00	0.15537
427.25	0.15698
427.50	0.15632
427.75	0.16053
428.00	0.16219
428.25	0.16165
428.50	0.16475
428.75	0.16448
429.00	0.16776
429.25	0.17011
429.50	0.16982
429.75	0.17312
430.00	0.17650
430.25	0.18169
430.50	0.18166
430.75	0.18782
431.00	0.19207
431.25	0.19723
431.50	0.20059
431.75	0.20807
432.00	0.21461
432.25	0.22044
432.50	0.22666
432.75	0.23639
433.00	0.24622
433.25	0.25591
433.50	0.26753
433.75	0.27961
434.00	0.29075
434.25	0.30683
434.50	0.32272
434.75	0.33802
435.00	0.35311
435.25	0.37145
435.50	0.39359
435.75	0.41211
436.00	0.42962
436.25	0.45086
436.50	0.47118
436.75	0.49725
437.00	0.51676
437.25	0.54038
437.50	0.56236
437.75	0.58603
438.00	0.60764
438.25	0.62938
438.50	0.65135
438.75	0.67550
439.00	0.69749
439.25	0.72051
439.50	0.73964
439.75	0.76534
440.00	0.78273
440.25	0.80421
440.50	0.82572
440.75	0.84745
441.00	0.86304
441.25	0.88041
441.50	0.89327
441.75	0.90733
442.00	0.92058
442.25	0.93263
442.50	0.94607
442.75	0.95542
443.00	0.96676
443.25	0.97361
443.50	0.97652
443.75	0.98331
444.00	0.99159
444.25	0.99387
444.50	1.0000
444.75	0.99288
445.00	0.99704
445.25	0.99852
445.50	0.98816
445.75	0.99205
446.00	0.98469
446.25	0.97426
446.50	0.96775
446.75	0.95830
447.00	0.94577
447.25	0.93778
447.50	0.91962
447.75	0.90846
448.00	0.89414
448.25	0.87933
448.50	0.85992
448.75	0.84256
449.00	0.82246
449.25	0.80444
449.50	0.78528
449.75	0.76444
450.00	0.74729
450.25	0.72346
450.50	0.69935
450.75	0.68111
451.00	0.65954
451.25	0.63429
451.50	0.61581
451.75	0.59539
452.00	0.57782
452.25	0.55776
452.50	0.53929
452.75	0.52369
453.00	0.50522
453.25	0.48774
453.50	0.46952
453.75	0.44787
454.00	0.43146
454.25	0.41321
454.50	0.39386
454.75	0.37591
455.00	0.35655
455.25	0.34191
455.50	0.32512
455.75	0.30815
456.00	0.29342
456.25	0.27861
456.50	0.26375
456.75	0.25104
457.00	0.23792
457.25	0.22487
457.50	0.21382
457.75	0.20157
458.00	0.18972
458.25	0.17940
458.50	0.17056
458.75	0.16142
459.00	0.15268
459.25	0.14478
459.50	0.13668
459.75	0.12977
460.00	0.12247
460.25	0.11739
460.50	0.11005
460.75	0.10369
461.00	0.097950
461.25	0.092883
461.50	0.089419
461.75	0.082866
462.00	0.079222
462.25	0.074671
462.50	0.071486
462.75	0.067298
463.00	0.063592
463.25	0.061304
463.50	0.058865
463.75	0.056612
464.00	0.052064
464.25	0.051376
464.50	0.048571
464.75	0.044599
465.00	0.043828
465.25	0.039393
465.50	0.039732
465.75	0.038192
466.00	0.035939
466.25	0.034753
466.50	0.034708
466.75	0.032674
467.00	0.030538
467.25	0.029848
467.50	0.028593
467.75	0.028305
468.00	0.025946
468.25	0.024849
468.50	0.025174
468.75	0.024091
469.00	0.022603
469.25	0.022614
469.50	0.020917
469.75	0.021020
470.00	0.020106
470.25	0.017151
470.50	0.019642
470.75	0.017986
471.00	0.018525
471.25	0.017269
471.50	0.016104
471.75	0.015467
472.00	0.014747
472.25	0.013726
472.50	0.014671
472.75	0.014724
473.00	0.012759
473.25	0.012509
473.50	0.011428
473.75	0.013120
474.00	0.010660
474.25	0.010805
474.50	0.011119
474.75	0.010153
475.00	0.0095213
475.25	0.0092928
475.50	0.010413
475.75	0.0096960
476.00	0.0089200
476.25	0.0086081
476.50	0.0078430
476.75	0.0075405
477.00	0.0061804
477.25	0.0071334
477.50	0.0066803
477.75	0.0070024
478.00	0.0082915
478.25	0.0071817
478.50	0.0079468
478.75	0.0047330
479.00	0.0067130
479.25	0.0053569
479.50	0.0060993
479.75	0.0068409
480.00	0.0059714
480.25	0.0044374
480.50	0.0044015
480.75	0.0055175
481.00	0.0040038
481.25	0.0057023
481.50	0.0058232
481.75	0.0042588
482.00	0.0028769
482.25	0.0035741
482.50	0.0039757
482.75	0.0043672
483.00	0.0049365
483.25	0.0032863
483.50	0.0038650
483.75	0.0035203
484.00	0.0037496
484.25	0.0035546
484.50	0.0019153
484.75	0.0032848
485.00	0.0029510
485.25	0.0038626
485.50	0.0020721
485.75	0.0026991
486.00	0.0028753
486.25	0.0020339
486.50	0.0019933
486.75	0.0040545
487.00	0.0021922
487.25	0.0028184
487.50	0.0023255
487.75	0.0022951
488.00	0.0023053
488.25	0.0022179
488.50	0.0015621
488.75	0.0035211
489.00	0.0012205
489.25	0.0030828
489.50	0.0026741
489.75	0.0028886
490.00	0.0029954
490.25	0.0027630
490.50	0.0014162
490.75	0.0039866
491.00	0.0028956
491.25	0.0037800
491.50	0.0013390
491.75	0.0024917
492.00	0.0021368
492.25	0.0016650
492.50	0.0025798
492.75	0.0017040
493.00	0.0029260
493.25	0.0024792
493.50	0.0028324
493.75	0.0019902
494.00	0.0019996
494.25	0.0022920
494.50	0.0028753
494.75	0.0020705
495.00	0.0026757
495.25	0.0027646
495.50	0.0023287
495.75	0.0017757
496.00	0.0015254
496.25	0.0019021
496.50	0.0012681
496.75	0.0010941
497.00	0.0028574
497.25	0.0032481
497.50	0.0036404
497.75	0.0014310
498.00	0.0014108
498.25	0.0014264
498.50	0.0014856
498.75	0.0012868
499.00	0.0037628
499.25	0.0014919
499.50	0.0018163
499.75	0.0010520
500.00	0.00082899
500.25	0.0028122
500.50	0.0037503
500.75	0.0034493
501.00	0.0042970
501.25	0.0036997
501.50	0.0025197
501.75	0.0027825
502.00	0.0018685
502.25	0.0018592
502.50	0.0027763
502.75	0.0023739
503.00	0.0025447
503.25	0.0023505
503.50	0.0031920
503.75	0.0018077
504.00	0.0027599
504.25	0.0020120
504.50	0.0037948
504.75	0.0029884
505.00	0.0027771
505.25	0.0030664
505.50	0.0034517
505.75	0.0032200
506.00	0.0028746
506.25	0.0027607
506.50	0.0026921
506.75	0.0014724
507.00	0.0021056
507.25	0.0031436
507.50	0.0024480
507.75	0.0026858
508.00	0.0025517
508.25	0.00074243
508.50	0.0028278
508.75	0.0034571
509.00	0.00090776
509.25	0.0020253
509.50	0.0011620
509.75	0.0029065
510.00	0.0022725
510.25	0.0016978
510.50	0.0018678
510.75	0.0041177
511.00	0.0030921
511.25	0.0029915
511.50	0.0019754
511.75	0.0023193
512.00	0.0034969
512.25	0.0022359
512.50	0.0030461
512.75	0.0042471
513.00	0.0020853
513.25	0.0035304
513.50	0.0027646
513.75	0.0030953
514.00	0.0023505
514.25	0.0024027
514.50	0.0037176
514.75	0.0016829
515.00	0.0032684
515.25	0.0034992
515.50	0.0035655
515.75	0.0032661
516.00	0.0034119
516.25	0.0031577
516.50	0.0020518
516.75	0.0030360
517.00	0.0042417
517.25	0.0036131
517.50	0.0034002
517.75	0.0033136
518.00	0.0025868
518.25	0.0031116
518.50	0.0031241
518.75	0.0030251
519.00	0.0034727
519.25	0.0022351
519.50	0.0031101
519.75	0.0018678
520.00	0.0039094
520.25	0.0034095
520.50	0.0025993
520.75	0.0028441
521.00	0.0025533
521.25	0.0023856
521.50	0.0024620
521.75	0.0021501
522.00	0.0033362
522.25	0.0031023
522.50	0.0038634
522.75	0.0035078
523.00	0.0019816
523.25	0.0020105
523.50	0.0030103
523.75	0.0030266
524.00	0.0021922
524.25	0.0021937
524.50	0.0028878
524.75	0.0026445
525.00	0.0042752
525.25	0.0029783
525.50	0.0019606
525.75	0.0023045
526.00	0.0027311
526.25	0.0030843
526.50	0.0015823
526.75	0.0045949
527.00	0.0040896
527.25	0.0040514
527.50	0.0039227
527.75	0.0029954
528.00	0.0019114
528.25	0.0040576
528.50	0.0050535
528.75	0.0045676
529.00	0.0031070
529.25	0.0034111
529.50	0.0033667
529.75	0.0026117
530.00	0.0033667
530.25	0.0026032
530.50	0.0023528
530.75	0.0039586
531.00	0.0030095
531.25	0.0035234
531.50	0.0030321
531.75	0.0042300
532.00	0.0024612
532.25	0.0024683
532.50	0.0042019
532.75	0.0029463
533.00	0.0032442
533.25	0.0040911
533.50	0.0039313
533.75	0.0033245
534.00	0.0041504
534.25	0.0034493
534.50	0.0041192
534.75	0.0031413
535.00	0.0030446
535.25	0.0040007
535.50	0.0024994
535.75	0.0039983
536.00	0.0039492
536.25	0.0026281
536.50	0.0032419
536.75	0.0037652
537.00	0.0033503
537.25	0.0036139
537.50	0.0029136
537.75	0.0052368
538.00	0.0026164
538.25	0.0038073
538.50	0.0039664
538.75	0.0034337
539.00	0.0042830
539.25	0.0048078
539.50	0.0040288
539.75	0.0059800
540.00	0.0041746
540.25	0.0038572
540.50	0.0036357
540.75	0.0038712
541.00	0.0042229
541.25	0.0051190
541.50	0.0050839
541.75	0.0061648
542.00	0.0038697
542.25	0.0047041
542.50	0.0053608
542.75	0.0061905
543.00	0.0058677
543.25	0.0051705
543.50	0.0048008
543.75	0.0059698
544.00	0.0040280
544.25	0.0067692
544.50	0.0063613
544.75	0.0056462
545.00	0.0048999
545.25	0.0050457
545.50	0.0054809
545.75	0.0039453
546.00	0.0060260
546.25	0.0064471
546.50	0.0056392
546.75	0.0057242
547.00	0.0068464
547.25	0.0064245
547.50	0.0050792
547.75	0.0054512
548.00	0.0066374
548.25	0.0066725
548.50	0.0061398
548.75	0.0068417
549.00	0.0057398
549.25	0.0061983
549.50	0.0049045
549.75	0.0059831
550.00	0.0075241
550.25	0.0063504
550.50	0.0070702
550.75	0.0052578
551.00	0.0072730
551.25	0.0062046
551.50	0.0065906
551.75	0.0061866
552.00	0.0064136
552.25	0.0073049
552.50	0.0055534
552.75	0.0060424
553.00	0.0066382
553.25	0.0061757
553.50	0.0067661
553.75	0.0065165
554.00	0.0050901
554.25	0.0072363
554.50	0.0067957
554.75	0.0056454
555.00	0.0083944
555.25	0.0070382
555.50	0.0068628
555.75	0.0061141
556.00	0.0077214
556.25	0.0065485
556.50	0.0059683
556.75	0.0056306
557.00	0.0071170
557.25	0.0069049
557.50	0.0067754
557.75	0.0063870
558.00	0.0082673
558.25	0.0074079
558.50	0.0069306
558.75	0.0075272
559.00	0.0062779
559.25	0.0078298
559.50	0.0081870
559.75	0.0064276
560.00	0.0084896
560.25	0.0073650
560.50	0.0072847
560.75	0.0068737
561.00	0.0066818
561.25	0.0072574
561.50	0.0070125
561.75	0.0072309
562.00	0.0067497
562.25	0.0061328
562.50	0.0073049
562.75	0.0065727
563.00	0.0065118
563.25	0.0073728
563.50	0.0077955
563.75	0.0075561
564.00	0.0057172
564.25	0.0085847
564.50	0.0057678
564.75	0.0078275
565.00	0.0080848
565.25	0.0073705
565.50	0.0085036
565.75	0.0066226
566.00	0.0070624
566.25	0.0059402
566.50	0.0081815
566.75	0.0057226
567.00	0.0080193
567.25	0.0063730
567.50	0.0059893
567.75	0.0063917
568.00	0.0067216
568.25	0.0062178
568.50	0.0082260
568.75	0.0078976
569.00	0.0085480
569.25	0.0060431
569.50	0.0052945
569.75	0.0076808
570.00	0.0057842
570.25	0.0072488
570.50	0.0068776
570.75	0.0070764
571.00	0.0052219
571.25	0.0072207
571.50	0.0064799
571.75	0.0073182
572.00	0.0071139
572.25	0.0078758
572.50	0.0059995
572.75	0.0082790
573.00	0.0069064
573.25	0.0082860
573.50	0.0069174
573.75	0.0068885
574.00	0.0066670
574.25	0.0064003
574.50	0.0083219
574.75	0.0068877
575.00	0.0070835
575.25	0.0065048
575.50	0.0074500
575.75	0.0072160
576.00	0.0079959
576.25	0.0077042
576.50	0.0073127
576.75	0.0080201
577.00	0.0073120
577.25	0.0064853
577.50	0.0072808
577.75	0.0066967
578.00	0.0079335
578.25	0.0079093
578.50	0.0068877
578.75	0.0072020
579.00	0.0073408
579.25	0.0073338
579.50	0.0081425
579.75	0.0074570
580.00	0.0094082
580.25	0.0089286
580.50	0.0071700
580.75	0.0078563
581.00	0.0078649
581.25	0.0070788
581.50	0.0079655
581.75	0.0072379
582.00	0.0082119
582.25	0.0094737
582.50	0.0091166
582.75	0.0089699
583.00	0.0084935
583.25	0.0087407
583.50	0.0081916
583.75	0.0094121
584.00	0.0093794
584.25	0.0087695
584.50	0.010084
584.75	0.010388
585.00	0.010382
585.25	0.0089793
585.50	0.010698
585.75	0.010249
586.00	0.0098145
586.25	0.0093879
586.50	0.010583
586.75	0.012477
587.00	0.010481
587.25	0.010590
587.50	0.012118
587.75	0.012832
588.00	0.011983
588.25	0.011860
588.50	0.012977
588.75	0.013541
589.00	0.012287
589.25	0.012953
589.50	0.013709
589.75	0.012537
590.00	0.014295
590.25	0.013213
590.50	0.012414
590.75	0.013991
591.00	0.014564
591.25	0.014388
591.50	0.015721
591.75	0.013478
592.00	0.013563
592.25	0.015972
592.50	0.015819
592.75	0.015776
593.00	0.016098
593.25	0.016425
593.50	0.014797
593.75	0.015724
594.00	0.016492
594.25	0.017370
594.50	0.016958
594.75	0.018248
595.00	0.018940
595.25	0.019914
595.50	0.018322
595.75	0.018792
596.00	0.018949
596.25	0.017952
596.50	0.018894
596.75	0.020425
597.00	0.019213
597.25	0.019663
597.50	0.020506
597.75	0.020307
598.00	0.020910
598.25	0.019868
598.50	0.019210
598.75	0.021115
599.00	0.021378
599.25	0.021530
599.50	0.021786
599.75	0.022090
600.00	0.021140
600.25	0.020609
600.50	0.022291
600.75	0.021605
601.00	0.021463
601.25	0.021215
601.50	0.022462
601.75	0.023757
602.00	0.020663
602.25	0.021796
602.50	0.022259
602.75	0.024039
603.00	0.020966
603.25	0.021975
603.50	0.021962
603.75	0.022985
604.00	0.022540
604.25	0.021950
604.50	0.023230
604.75	0.021951
605.00	0.022973
605.25	0.022857
605.50	0.022968
605.75	0.023290
606.00	0.022360
606.25	0.023817
606.50	0.024557
606.75	0.023158
607.00	0.021782
607.25	0.024530
607.50	0.022041
607.75	0.023690
608.00	0.024218
608.25	0.022257
608.50	0.023393
608.75	0.026291
609.00	0.023016
609.25	0.023811
609.50	0.024289
609.75	0.024090
610.00	0.024262
610.25	0.023355
610.50	0.024296
610.75	0.024489
611.00	0.026019
611.25	0.022499
611.50	0.022673
611.75	0.024516
612.00	0.022783
612.25	0.022696
612.50	0.022301
612.75	0.024818
613.00	0.023253
613.25	0.023184
613.50	0.022115
613.75	0.023269
614.00	0.024033
614.25	0.022653
614.50	0.024681
614.75	0.023160
615.00	0.022341
615.25	0.022328
615.50	0.022996
615.75	0.022840
616.00	0.023043
616.25	0.020774
616.50	0.023258
616.75	0.023771
617.00	0.020474
617.25	0.022805
617.50	0.021713
617.75	0.021472
618.00	0.022263
618.25	0.019518
618.50	0.022248
618.75	0.020247
619.00	0.022646
619.25	0.020853
619.50	0.020634
619.75	0.021703
620.00	0.022118
620.25	0.021784
620.50	0.020337
620.75	0.021842
621.00	0.022604
621.25	0.020931
621.50	0.022627
621.75	0.020680
622.00	0.020507
622.25	0.024467
622.50	0.021368
622.75	0.020317
623.00	0.020501
623.25	0.021791
623.50	0.021681
623.75	0.021551
624.00	0.020720
624.25	0.020022
624.50	0.020507
624.75	0.021452
625.00	0.022253
625.25	0.021791
625.50	0.020113
625.75	0.022286
626.00	0.022531
626.25	0.021504
626.50	0.022695
626.75	0.022601
627.00	0.022557
627.25	0.022280
627.50	0.022346
627.75	0.022564
628.00	0.021648
628.25	0.020092
628.50	0.022600
628.75	0.021958
629.00	0.024482
629.25	0.024717
629.50	0.022889
629.75	0.024251
630.00	0.022667
630.25	0.024339
630.50	0.023322
630.75	0.026139
631.00	0.024543
631.25	0.026211
631.50	0.026043
631.75	0.026897
632.00	0.027173
632.25	0.026592
632.50	0.026712
632.75	0.028287
633.00	0.029352
633.25	0.027961
633.50	0.028275
633.75	0.028774
634.00	0.030138
634.25	0.031739
634.50	0.030620
634.75	0.031628
635.00	0.033846
635.25	0.033456
635.50	0.034471
635.75	0.037257
636.00	0.038417
636.25	0.033818
636.50	0.037014
636.75	0.038738
637.00	0.038715
637.25	0.040047
637.50	0.041244
637.75	0.042417
638.00	0.042915
638.25	0.044800
638.50	0.043227
638.75	0.048739
639.00	0.046573
639.25	0.049518
639.50	0.047640
639.75	0.049228
640.00	0.051136
640.25	0.048867
640.50	0.050474
640.75	0.052279
641.00	0.052873
641.25	0.053406
641.50	0.057645
641.75	0.057606
642.00	0.058805
642.25	0.059374
642.50	0.060393
642.75	0.063154
643.00	0.064578
643.25	0.065306
643.50	0.068114
643.75	0.068026
644.00	0.068059
644.25	0.068779
644.50	0.069852
644.75	0.072120
645.00	0.072093
645.25	0.072592
645.50	0.074897
645.75	0.076242
646.00	0.079620
646.25	0.078522
646.50	0.080968
646.75	0.082632
647.00	0.084159
647.25	0.086175
647.50	0.087337
647.75	0.087299
648.00	0.089139
648.25	0.090234
648.50	0.090633
648.75	0.090878
649.00	0.091280
649.25	0.093764
649.50	0.097323
649.75	0.096922
650.00	0.097904
650.25	0.097759
650.50	0.10178
650.75	0.10176
651.00	0.10015
651.25	0.10456
651.50	0.10541
651.75	0.10543
652.00	0.10805
652.25	0.10980
652.50	0.10673
652.75	0.11164
653.00	0.11362
653.25	0.11427
653.50	0.11382
653.75	0.11692
654.00	0.11620
654.25	0.11726
654.50	0.12135
654.75	0.11954
655.00	0.12054
655.25	0.12113
655.50	0.12330
655.75	0.12201
656.00	0.12587
656.25	0.12291
656.50	0.12366
656.75	0.12766
657.00	0.12648
657.25	0.12875
657.50	0.12721
657.75	0.12734
658.00	0.12758
658.25	0.12819
658.50	0.12827
658.75	0.13208
659.00	0.13079
659.25	0.13113
659.50	0.13159
659.75	0.13107
660.00	0.13223
660.25	0.13269
660.50	0.13119
660.75	0.12986
661.00	0.13063
661.25	0.12998
661.50	0.13074
661.75	0.13043
662.00	0.12987
662.25	0.13155
662.50	0.13235
662.75	0.12928
663.00	0.12755
663.25	0.12947
663.50	0.12873
663.75	0.12988
664.00	0.12876
664.25	0.12812
664.50	0.12622
664.75	0.12442
665.00	0.12456
665.25	0.12618
665.50	0.12317
665.75	0.12216
666.00	0.12283
666.25	0.12353
666.50	0.12118
666.75	0.12062
667.00	0.12025
667.25	0.11740
667.50	0.11626
667.75	0.11666
668.00	0.11555
668.25	0.11530
668.50	0.11319
668.75	0.11156
669.00	0.11178
669.25	0.11105
669.50	0.10933
669.75	0.10775
670.00	0.10656
670.25	0.10722
670.50	0.10647
670.75	0.10307
671.00	0.10144
671.25	0.10169
671.50	0.10254
671.75	0.099236
672.00	0.096164
672.25	0.097577
672.50	0.094252
672.75	0.091527
673.00	0.094544
673.25	0.089423
673.50	0.088767
673.75	0.090348
674.00	0.088271
674.25	0.082433
674.50	0.083115
674.75	0.081668
675.00	0.080287
675.25	0.079777
675.50	0.078547
675.75	0.076497
676.00	0.075674
676.25	0.074857
676.50	0.072932
676.75	0.073178
677.00	0.070856
677.25	0.070764
677.50	0.069023
677.75	0.066280
678.00	0.064578
678.25	0.063747
678.50	0.061131
678.75	0.062640
679.00	0.060553
679.25	0.061203
679.50	0.058616
679.75	0.059198
680.00	0.057818
680.25	0.055529
680.50	0.054450
680.75	0.055129
681.00	0.050879
681.25	0.052293
681.50	0.051054
681.75	0.051712
682.00	0.049619
682.25	0.049181
682.50	0.046388
682.75	0.047460
683.00	0.045225
683.25	0.042742
683.50	0.043870
683.75	0.043374
684.00	0.040901
684.25	0.041465
684.50	0.040255
684.75	0.038626
685.00	0.037482
685.25	0.037900
685.50	0.036904
685.75	0.037374
686.00	0.035969
686.25	0.036177
686.50	0.035162
686.75	0.034588
687.00	0.033654
687.25	0.030493
687.50	0.029684
687.75	0.032756
688.00	0.031589
688.25	0.030250
688.50	0.029162
688.75	0.030959
689.00	0.026866
689.25	0.027804
689.50	0.025793
689.75	0.027271
690.00	0.025672
690.25	0.028169
690.50	0.026126
690.75	0.025962
691.00	0.022599
691.25	0.025344
691.50	0.022847
691.75	0.023384
692.00	0.021117
692.25	0.020947
692.50	0.021693
692.75	0.021055
693.00	0.020559
693.25	0.017869
693.50	0.020071
693.75	0.019776
694.00	0.018923
694.25	0.017399
694.50	0.017964
694.75	0.019585
695.00	0.018562
695.25	0.015091
695.50	0.015083
695.75	0.016519
696.00	0.017941
696.25	0.014216
696.50	0.017156
696.75	0.015311
697.00	0.014757
697.25	0.014312
697.50	0.013492
697.75	0.011881
698.00	0.012777
698.25	0.011868
698.50	0.010921
698.75	0.011672
699.00	0.014135
699.25	0.011831
699.50	0.010679
699.75	0.011317
700.00	0.0093458
