Wavelength (nm)	Q29 abs  N
350.00	0.040103
351.00	0.039210
352.00	0.038213
353.00	0.037528
354.00	0.036784
355.00	0.036077
356.00	0.035422
357.00	0.034931
358.00	0.034596
359.00	0.034202
360.00	0.033874
361.00	0.034053
362.00	0.034313
363.00	0.034589
364.00	0.034842
365.00	0.035675
366.00	0.036144
367.00	0.036829
368.00	0.037625
369.00	0.038525
370.00	0.039218
371.00	0.040073
372.00	0.040907
373.00	0.041993
374.00	0.043147
375.00	0.044300
376.00	0.045632
377.00	0.047002
378.00	0.048497
379.00	0.049978
380.00	0.051801
381.00	0.053409
382.00	0.055299
383.00	0.056735
384.00	0.058730
385.00	0.061059
386.00	0.062912
387.00	0.064698
388.00	0.066327
389.00	0.067927
390.00	0.069617
391.00	0.071224
392.00	0.073003
393.00	0.074871
394.00	0.076887
395.00	0.079038
396.00	0.081680
397.00	0.084507
398.00	0.087826
399.00	0.091651
400.00	0.095886
401.00	0.10076
402.00	0.10629
403.00	0.11238
404.00	0.11933
405.00	0.12672
406.00	0.13488
407.00	0.14345
408.00	0.15258
409.00	0.16186
410.00	0.17114
411.00	0.17988
412.00	0.18791
413.00	0.19473
414.00	0.20072
415.00	0.20513
416.00	0.20857
417.00	0.21065
418.00	0.21206
419.00	0.21308
420.00	0.21423
421.00	0.21599
422.00	0.21895
423.00	0.22382
424.00	0.23091
425.00	0.24068
426.00	0.25389
427.00	0.27119
428.00	0.29246
429.00	0.31899
430.00	0.35073
431.00	0.38859
432.00	0.43271
433.00	0.48421
434.00	0.54183
435.00	0.60494
436.00	0.67142
437.00	0.73920
438.00	0.80513
439.00	0.86679
440.00	0.92030
441.00	0.96143
442.00	0.98926
443.00	1.0000
444.00	0.99499
445.00	0.97317
446.00	0.93795
447.00	0.88928
448.00	0.83196
449.00	0.76818
450.00	0.70112
451.00	0.63299
452.00	0.56717
453.00	0.50479
454.00	0.44654
455.00	0.39375
456.00	0.34633
457.00	0.30444
458.00	0.26754
459.00	0.23597
460.00	0.20823
461.00	0.18420
462.00	0.16309
463.00	0.14483
464.00	0.12870
465.00	0.11447
466.00	0.10192
467.00	0.090796
468.00	0.080869
469.00	0.071991
470.00	0.063835
471.00	0.056735
472.00	0.050425
473.00	0.044784
474.00	0.039902
475.00	0.035653
476.00	0.031716
477.00	0.028442
478.00	0.025495
479.00	0.023002
480.00	0.020762
481.00	0.018887
482.00	0.017183
483.00	0.015866
484.00	0.014534
485.00	0.013417
486.00	0.012472
487.00	0.011721
488.00	0.010924
489.00	0.010255
490.00	0.0096593
491.00	0.0091384
492.00	0.0086919
493.00	0.0082900
494.00	0.0078584
495.00	0.0075830
496.00	0.0072333
497.00	0.0070175
498.00	0.0067421
499.00	0.0065635
500.00	0.0063403
501.00	0.0062808
502.00	0.0060650
503.00	0.0059757
504.00	0.0059384
505.00	0.0058045
506.00	0.0057301
507.00	0.0057301
508.00	0.0056854
509.00	0.0056929
510.00	0.0056333
511.00	0.0056259
512.00	0.0056333
513.00	0.0056780
514.00	0.0057003
515.00	0.0057226
516.00	0.0057822
517.00	0.0058864
518.00	0.0060054
519.00	0.0061022
520.00	0.0061915
521.00	0.0063849
522.00	0.0067273
523.00	0.0069207
524.00	0.0072258
525.00	0.0074417
526.00	0.0077319
527.00	0.0079254
528.00	0.0081858
529.00	0.0083123
530.00	0.0084463
531.00	0.0085430
532.00	0.0087365
533.00	0.0088779
534.00	0.0089746
535.00	0.0090788
536.00	0.0092128
537.00	0.0091979
538.00	0.0094435
539.00	0.0093765
540.00	0.0094658
541.00	0.0095253
542.00	0.0095997
543.00	0.0096444
544.00	0.0095997
545.00	0.0096221
546.00	0.0097337
547.00	0.0097635
548.00	0.0098007
549.00	0.0098081
550.00	0.0099272
551.00	0.0098974
552.00	0.010076
553.00	0.010262
554.00	0.010322
555.00	0.010463
556.00	0.010813
557.00	0.011140
558.00	0.011602
559.00	0.011989
560.00	0.012703
561.00	0.013462
562.00	0.014340
563.00	0.015434
564.00	0.016744
565.00	0.018314
566.00	0.019936
567.00	0.022005
568.00	0.024223
569.00	0.026485
570.00	0.028918
571.00	0.031225
572.00	0.033569
573.00	0.035951
574.00	0.038079
575.00	0.040133
576.00	0.041949
577.00	0.043653
578.00	0.045163
579.00	0.046436
580.00	0.047545
581.00	0.048512
582.00	0.049204
583.00	0.049733
584.00	0.049859
585.00	0.049956
586.00	0.049785
587.00	0.049241
588.00	0.048668
589.00	0.047902
590.00	0.047150
591.00	0.046309
592.00	0.045327
593.00	0.044471
594.00	0.043638
595.00	0.043065
596.00	0.042403
597.00	0.042053
598.00	0.041658
599.00	0.041636
600.00	0.041748
601.00	0.042068
602.00	0.042603
603.00	0.043504
604.00	0.044672
605.00	0.046064
606.00	0.047880
607.00	0.050224
608.00	0.052977
609.00	0.056445
610.00	0.060508
611.00	0.065516
612.00	0.071299
613.00	0.078189
614.00	0.086204
615.00	0.095506
616.00	0.10623
617.00	0.11863
618.00	0.13263
619.00	0.14822
620.00	0.16528
621.00	0.18382
622.00	0.20343
623.00	0.22386
624.00	0.24421
625.00	0.26390
626.00	0.28252
627.00	0.29919
628.00	0.31351
629.00	0.32488
630.00	0.33302
631.00	0.33752
632.00	0.33878
633.00	0.33643
634.00	0.33089
635.00	0.32228
636.00	0.31123
637.00	0.29772
638.00	0.28246
639.00	0.26572
640.00	0.24819
641.00	0.23022
642.00	0.21212
643.00	0.19415
644.00	0.17677
645.00	0.16001
646.00	0.14432
647.00	0.12952
648.00	0.11584
649.00	0.10334
650.00	0.092076
651.00	0.081881
652.00	0.072839
653.00	0.064594
654.00	0.057360
655.00	0.050946
656.00	0.045342
657.00	0.040364
658.00	0.035832
659.00	0.032029
660.00	0.028650
661.00	0.025644
662.00	0.023032
663.00	0.020762
664.00	0.018805
665.00	0.017079
666.00	0.015471
667.00	0.014161
668.00	0.012859
669.00	0.011832
670.00	0.010828
671.00	0.010016
672.00	0.0092425
673.00	0.0085430
674.00	0.0079700
675.00	0.0073896
676.00	0.0068687
677.00	0.0064296
678.00	0.0060650
679.00	0.0056557
680.00	0.0052910
681.00	0.0049636
682.00	0.0047478
683.00	0.0044650
684.00	0.0042194
685.00	0.0039962
686.00	0.0037655
687.00	0.0036464
688.00	0.0034008
689.00	0.0032371
690.00	0.0030436
691.00	0.0029469
692.00	0.0028502
693.00	0.0026195
694.00	0.0025227
695.00	0.0026269
696.00	0.0023888
697.00	0.0023144
698.00	0.0022697
699.00	0.0021358
700.00	0.0019944
701.00	0.0020167
702.00	0.0020613
703.00	0.0019795
704.00	0.0017934
705.00	0.0017711
706.00	0.0017041
707.00	0.0017562
708.00	0.0016595
709.00	0.0016148
710.00	0.0016148
711.00	0.0016744
712.00	0.0016223
713.00	0.0016000
714.00	0.0016595
715.00	0.0015553
716.00	0.0016372
717.00	0.0014958
718.00	0.0015553
719.00	0.0015925
720.00	0.0015255
721.00	0.0015776
722.00	0.0016000
723.00	0.0016000
724.00	0.0015181
725.00	0.0016074
726.00	0.0016595
727.00	0.0016669
728.00	0.0016446
729.00	0.0016372
730.00	0.0015702
731.00	0.0016297
732.00	0.0017413
733.00	0.0017190
734.00	0.0017116
735.00	0.0017488
736.00	0.0017116
737.00	0.0017934
738.00	0.0017637
739.00	0.0017637
740.00	0.0017711
741.00	0.0018306
742.00	0.0018976
743.00	0.0018827
744.00	0.0019199
745.00	0.0018679
746.00	0.0018530
747.00	0.0018902
748.00	0.0019646
749.00	0.0019572
750.00	0.0019497
751.00	0.0019869
752.00	0.0018530
753.00	0.0018827
754.00	0.0019051
755.00	0.0018753
756.00	0.0019125
757.00	0.0018902
758.00	0.0019274
759.00	0.0018902
760.00	0.0020092
761.00	0.0020092
762.00	0.0020167
763.00	0.0020613
764.00	0.0020241
765.00	0.0019051
766.00	0.0020167
767.00	0.0019720
768.00	0.0019869
769.00	0.0018976
770.00	0.0018679
771.00	0.0018306
772.00	0.0017488
773.00	0.0017190
774.00	0.0017041
775.00	0.0017488
776.00	0.0016967
777.00	0.0016297
778.00	0.0015851
779.00	0.0016074
780.00	0.0016446
781.00	0.0017562
782.00	0.0015702
783.00	0.0015404
784.00	0.0014437
785.00	0.0014511
786.00	0.0013544
787.00	0.0013321
788.00	0.0012948
789.00	0.0013097
790.00	0.0012800
791.00	0.0013023
792.00	0.0011832
793.00	0.0011758
794.00	0.0011014
795.00	0.00095253
796.00	0.00094509
797.00	0.00093765
798.00	0.00087067
799.00	0.00080370
800.00	0.00084091
