Wavelength (nm)	Q32 abs N
350.00	0.061805
350.00	0.061805
350.00	0.061805
351.00	0.060629
352.00	0.059276
353.00	0.058259
354.00	0.057438
355.00	0.056356
356.00	0.055535
357.00	0.054863
358.00	0.054247
359.00	0.053436
360.00	0.052829
361.00	0.052297
362.00	0.051887
363.00	0.051607
364.00	0.051122
365.00	0.050991
366.00	0.050898
367.00	0.050534
368.00	0.050385
369.00	0.050189
370.00	0.050254
371.00	0.050151
372.00	0.050161
373.00	0.049993
374.00	0.050077
375.00	0.049899
376.00	0.049946
377.00	0.049787
378.00	0.049983
379.00	0.049993
380.00	0.049834
381.00	0.049993
382.00	0.049871
383.00	0.050273
384.00	0.050515
385.00	0.050478
386.00	0.050627
387.00	0.050776
388.00	0.051122
389.00	0.051458
390.00	0.051849
391.00	0.052213
392.00	0.052577
393.00	0.052950
394.00	0.053417
395.00	0.053697
396.00	0.053893
397.00	0.054257
398.00	0.054387
399.00	0.054555
400.00	0.054546
401.00	0.054471
402.00	0.054322
403.00	0.054247
404.00	0.054005
405.00	0.053641
406.00	0.053361
407.00	0.053081
408.00	0.052792
409.00	0.052633
410.00	0.052503
411.00	0.052204
412.00	0.052055
413.00	0.052111
414.00	0.052092
415.00	0.052279
416.00	0.052409
417.00	0.052782
418.00	0.053081
419.00	0.053734
420.00	0.054462
421.00	0.055236
422.00	0.056347
423.00	0.057513
424.00	0.058847
425.00	0.060489
426.00	0.062402
427.00	0.064520
428.00	0.066741
429.00	0.069437
430.00	0.072106
431.00	0.075082
432.00	0.078180
433.00	0.081306
434.00	0.084646
435.00	0.088080
436.00	0.091429
437.00	0.094891
438.00	0.098474
439.00	0.10191
440.00	0.10552
441.00	0.10938
442.00	0.11342
443.00	0.11786
444.00	0.12256
445.00	0.12758
446.00	0.13302
447.00	0.13877
448.00	0.14484
449.00	0.15128
450.00	0.15815
451.00	0.16510
452.00	0.17285
453.00	0.18136
454.00	0.19120
455.00	0.20227
456.00	0.21548
457.00	0.23071
458.00	0.24840
459.00	0.26837
460.00	0.29058
461.00	0.31519
462.00	0.34176
463.00	0.36996
464.00	0.39914
465.00	0.42894
466.00	0.45940
467.00	0.49018
468.00	0.52148
469.00	0.55387
470.00	0.58757
471.00	0.62318
472.00	0.66069
473.00	0.70063
474.00	0.74259
475.00	0.78527
476.00	0.82786
477.00	0.86905
478.00	0.90692
479.00	0.93926
480.00	0.96561
481.00	0.98443
482.00	0.99632
483.00	1.0000
484.00	0.99709
485.00	0.98735
486.00	0.97210
487.00	0.95119
488.00	0.92625
489.00	0.89710
490.00	0.86437
491.00	0.82781
492.00	0.78829
493.00	0.74543
494.00	0.70050
495.00	0.65321
496.00	0.60506
497.00	0.55635
498.00	0.50794
499.00	0.46018
500.00	0.41416
501.00	0.37035
502.00	0.32904
503.00	0.29076
504.00	0.25542
505.00	0.22360
506.00	0.19498
507.00	0.16963
508.00	0.14733
509.00	0.12801
510.00	0.11136
511.00	0.097233
512.00	0.085243
513.00	0.075194
514.00	0.066545
515.00	0.059323
516.00	0.053156
517.00	0.047949
518.00	0.043340
519.00	0.039850
520.00	0.036482
521.00	0.033758
522.00	0.031322
523.00	0.029344
524.00	0.027553
525.00	0.026004
526.00	0.024744
527.00	0.023606
528.00	0.022598
529.00	0.021815
530.00	0.021301
531.00	0.020770
532.00	0.020284
533.00	0.020107
534.00	0.019799
535.00	0.019883
536.00	0.019762
537.00	0.019893
538.00	0.020033
539.00	0.020256
540.00	0.020490
541.00	0.020854
542.00	0.021190
543.00	0.021441
544.00	0.021796
545.00	0.022160
546.00	0.022449
547.00	0.022804
548.00	0.023224
549.00	0.023587
550.00	0.023821
551.00	0.024297
552.00	0.024586
553.00	0.024884
554.00	0.025090
555.00	0.025398
556.00	0.025687
557.00	0.026051
558.00	0.026247
559.00	0.026433
560.00	0.026620
561.00	0.026881
562.00	0.027030
563.00	0.027133
564.00	0.027245
565.00	0.027236
566.00	0.027581
567.00	0.027628
568.00	0.028019
569.00	0.028159
570.00	0.028598
571.00	0.029251
572.00	0.029839
573.00	0.030604
574.00	0.031556
575.00	0.032741
576.00	0.033907
577.00	0.035055
578.00	0.036408
579.00	0.037882
580.00	0.039309
581.00	0.040718
582.00	0.042136
583.00	0.043657
584.00	0.045057
585.00	0.046456
586.00	0.047865
587.00	0.049200
588.00	0.050795
589.00	0.052008
590.00	0.053454
591.00	0.054611
592.00	0.055918
593.00	0.056897
594.00	0.057858
595.00	0.058427
596.00	0.058689
597.00	0.058773
598.00	0.058745
599.00	0.058297
600.00	0.057812
601.00	0.057065
602.00	0.056197
603.00	0.055031
604.00	0.054005
605.00	0.052838
606.00	0.051523
607.00	0.050450
608.00	0.049377
609.00	0.048164
610.00	0.047026
611.00	0.046139
612.00	0.045150
613.00	0.044404
614.00	0.043657
615.00	0.043163
616.00	0.042799
617.00	0.042762
618.00	0.043051
619.00	0.043601
620.00	0.044730
621.00	0.046223
622.00	0.048257
623.00	0.051010
624.00	0.054210
625.00	0.058250
626.00	0.062654
627.00	0.067469
628.00	0.072367
629.00	0.077704
630.00	0.082789
631.00	0.087380
632.00	0.091373
633.00	0.094891
634.00	0.097559
635.00	0.099509
636.00	0.10092
637.00	0.10166
638.00	0.10187
639.00	0.10197
640.00	0.10172
641.00	0.10119
642.00	0.10033
643.00	0.099640
644.00	0.098660
645.00	0.097830
646.00	0.096888
647.00	0.095955
648.00	0.095022
649.00	0.094294
650.00	0.093753
651.00	0.093015
652.00	0.092502
653.00	0.091868
654.00	0.090963
655.00	0.090188
656.00	0.089134
657.00	0.087669
658.00	0.085952
659.00	0.083816
660.00	0.081492
661.00	0.078842
662.00	0.075875
663.00	0.072918
664.00	0.069689
665.00	0.066424
666.00	0.063149
667.00	0.059846
668.00	0.056552
669.00	0.053268
670.00	0.050217
671.00	0.047175
672.00	0.044105
673.00	0.041325
674.00	0.038516
675.00	0.035866
676.00	0.033356
677.00	0.031117
678.00	0.028962
679.00	0.026900
680.00	0.025052
681.00	0.023186
682.00	0.021656
683.00	0.020135
684.00	0.018829
685.00	0.017513
686.00	0.016375
687.00	0.015386
688.00	0.014751
689.00	0.014024
690.00	0.013501
691.00	0.013035
692.00	0.012736
693.00	0.012531
694.00	0.012494
695.00	0.012466
696.00	0.012587
697.00	0.012820
698.00	0.013147
699.00	0.013669
700.00	0.014201
701.00	0.014733
702.00	0.015330
703.00	0.015834
704.00	0.016347
705.00	0.016758
706.00	0.017224
707.00	0.017448
708.00	0.017775
709.00	0.017663
710.00	0.017653
711.00	0.017523
712.00	0.017168
713.00	0.016916
714.00	0.016440
715.00	0.015964
716.00	0.015442
717.00	0.014835
718.00	0.014257
719.00	0.013622
720.00	0.013119
721.00	0.012531
722.00	0.011878
723.00	0.011318
724.00	0.010749
725.00	0.010236
726.00	0.0097037
727.00	0.0092838
728.00	0.0086867
729.00	0.0083041
730.00	0.0080335
731.00	0.0075484
732.00	0.0070538
733.00	0.0067926
734.00	0.0065220
735.00	0.0062048
736.00	0.0059155
737.00	0.0057009
738.00	0.0053837
739.00	0.0052997
740.00	0.0049918
741.00	0.0049452
742.00	0.0045626
743.00	0.0045066
744.00	0.0042640
745.00	0.0042547
746.00	0.0041334
747.00	0.0040681
748.00	0.0038721
749.00	0.0037788
750.00	0.0037788
751.00	0.0036482
752.00	0.0035269
753.00	0.0035176
754.00	0.0034429
755.00	0.0032657
756.00	0.0033590
757.00	0.0033683
758.00	0.0032190
759.00	0.0031724
760.00	0.0031070
761.00	0.0030511
762.00	0.0029578
763.00	0.0029018
764.00	0.0030044
765.00	0.0029484
766.00	0.0029111
767.00	0.0029111
768.00	0.0027898
769.00	0.0028738
770.00	0.0027618
771.00	0.0027152
772.00	0.0026965
773.00	0.0027432
774.00	0.0028365
775.00	0.0026965
776.00	0.0025472
777.00	0.0026499
778.00	0.0025752
779.00	0.0025752
780.00	0.0026405
781.00	0.0027525
782.00	0.0026778
783.00	0.0026219
784.00	0.0025845
785.00	0.0026872
786.00	0.0026405
787.00	0.0026125
788.00	0.0025565
789.00	0.0026125
790.00	0.0026032
791.00	0.0025472
792.00	0.0025565
793.00	0.0025752
794.00	0.0025752
795.00	0.0025192
796.00	0.0025565
797.00	0.0024632
798.00	0.0024539
799.00	0.0024446
800.00	0.0024819
