Wavelength (nm)	T07 abs N
300.00	0.089556
301.00	0.089696
302.00	0.089894
303.00	0.090018
304.00	0.090548
305.00	0.091220
306.00	0.092294
307.00	0.093490
308.00	0.094237
309.00	0.095002
310.00	0.096145
311.00	0.096844
312.00	0.097279
313.00	0.097764
314.00	0.098597
315.00	0.099233
316.00	0.099753
317.00	0.10054
318.00	0.10155
319.00	0.10252
320.00	0.10387
321.00	0.10577
322.00	0.10754
323.00	0.10983
324.00	0.11222
325.00	0.11496
326.00	0.11854
327.00	0.12197
328.00	0.12554
329.00	0.12986
330.00	0.13486
331.00	0.14026
332.00	0.14590
333.00	0.15224
334.00	0.15874
335.00	0.16557
336.00	0.17231
337.00	0.17927
338.00	0.18642
339.00	0.19327
340.00	0.19996
341.00	0.20681
342.00	0.21383
343.00	0.22076
344.00	0.22785
345.00	0.23489
346.00	0.24231
347.00	0.24990
348.00	0.25783
349.00	0.26625
350.00	0.27516
351.00	0.28439
352.00	0.29415
353.00	0.30422
354.00	0.31429
355.00	0.32346
356.00	0.33143
357.00	0.33808
358.00	0.34297
359.00	0.34761
360.00	0.35272
361.00	0.35716
362.00	0.36014
363.00	0.36202
364.00	0.36299
365.00	0.36279
366.00	0.36189
367.00	0.36091
368.00	0.35963
369.00	0.35735
370.00	0.35512
371.00	0.35373
372.00	0.35169
373.00	0.35050
374.00	0.35114
375.00	0.35073
376.00	0.35117
377.00	0.35257
378.00	0.35517
379.00	0.35743
380.00	0.36109
381.00	0.36488
382.00	0.37037
383.00	0.37614
384.00	0.38293
385.00	0.39100
386.00	0.40057
387.00	0.41101
388.00	0.42191
389.00	0.43362
390.00	0.44679
391.00	0.46554
392.00	0.48204
393.00	0.50042
394.00	0.51748
395.00	0.53710
396.00	0.55942
397.00	0.58255
398.00	0.60628
399.00	0.62619
400.00	0.64511
401.00	0.66948
402.00	0.69470
403.00	0.71846
404.00	0.74590
405.00	0.77548
406.00	0.80081
407.00	0.82801
408.00	0.86000
409.00	0.89655
410.00	0.92726
411.00	0.95255
412.00	0.98400
413.00	1.0000
414.00	0.99930
415.00	0.99498
416.00	0.98053
417.00	0.95907
418.00	0.92702
419.00	0.88619
420.00	0.84304
421.00	0.79691
422.00	0.74825
423.00	0.69661
424.00	0.64328
425.00	0.59168
426.00	0.53800
427.00	0.48436
428.00	0.43921
429.00	0.38726
430.00	0.34328
431.00	0.30304
432.00	0.26483
433.00	0.22902
434.00	0.19889
435.00	0.17381
436.00	0.15121
437.00	0.13264
438.00	0.11650
439.00	0.10340
440.00	0.091679
441.00	0.081675
442.00	0.074190
443.00	0.066738
444.00	0.061048
445.00	0.055540
446.00	0.051094
447.00	0.047371
448.00	0.044026
449.00	0.040517
450.00	0.037948
451.00	0.035391
452.00	0.033702
453.00	0.031581
454.00	0.030214
455.00	0.028770
456.00	0.027595
457.00	0.026686
458.00	0.025258
459.00	0.024327
460.00	0.023569
461.00	0.023630
462.00	0.023459
463.00	0.022675
464.00	0.023786
465.00	0.023817
466.00	0.024295
467.00	0.025336
468.00	0.026565
469.00	0.027197
470.00	0.028675
471.00	0.030872
472.00	0.032645
473.00	0.034006
474.00	0.035503
475.00	0.036481
476.00	0.037524
477.00	0.038620
478.00	0.039470
479.00	0.039415
480.00	0.039740
481.00	0.040056
482.00	0.039955
483.00	0.039354
484.00	0.038696
485.00	0.037419
486.00	0.037010
487.00	0.034995
488.00	0.034922
489.00	0.034117
490.00	0.032937
491.00	0.031516
492.00	0.031351
493.00	0.031910
494.00	0.032182
495.00	0.032992
496.00	0.035246
497.00	0.036922
498.00	0.039158
499.00	0.042493
500.00	0.044812
501.00	0.048761
502.00	0.051695
503.00	0.055177
504.00	0.057146
505.00	0.059526
506.00	0.061141
507.00	0.062637
508.00	0.063362
509.00	0.063013
510.00	0.062725
511.00	0.061686
512.00	0.058974
513.00	0.056277
514.00	0.053274
515.00	0.049314
516.00	0.045881
517.00	0.042585
518.00	0.038576
519.00	0.035762
520.00	0.033193
521.00	0.031275
522.00	0.028961
523.00	0.028373
524.00	0.028320
525.00	0.027842
526.00	0.026975
527.00	0.027920
528.00	0.028843
529.00	0.030194
530.00	0.032067
531.00	0.035186
532.00	0.039691
533.00	0.045428
534.00	0.052090
535.00	0.059759
536.00	0.068387
537.00	0.080253
538.00	0.094119
539.00	0.10881
540.00	0.12320
541.00	0.13956
542.00	0.15503
543.00	0.16678
544.00	0.17677
545.00	0.18204
546.00	0.18169
547.00	0.17698
548.00	0.16779
549.00	0.15500
550.00	0.14102
551.00	0.12550
552.00	0.10973
553.00	0.094556
554.00	0.082244
555.00	0.068933
556.00	0.059168
557.00	0.050309
558.00	0.043126
559.00	0.036790
560.00	0.031507
561.00	0.026956
562.00	0.023936
563.00	0.021002
564.00	0.019446
565.00	0.017567
566.00	0.016022
567.00	0.014694
568.00	0.013949
569.00	0.013601
570.00	0.012947
571.00	0.012801
572.00	0.012765
573.00	0.012791
574.00	0.013138
575.00	0.013255
576.00	0.013590
577.00	0.013949
578.00	0.014490
579.00	0.014746
580.00	0.015205
581.00	0.015851
582.00	0.016355
583.00	0.016620
584.00	0.016935
585.00	0.017381
586.00	0.017568
587.00	0.018033
588.00	0.017978
589.00	0.018172
590.00	0.018451
591.00	0.018296
592.00	0.018301
593.00	0.018281
594.00	0.018275
595.00	0.018262
596.00	0.018145
597.00	0.018115
598.00	0.017839
599.00	0.017816
600.00	0.017426
601.00	0.017500
602.00	0.017300
603.00	0.017163
604.00	0.016974
605.00	0.016899
606.00	0.016783
607.00	0.016699
608.00	0.016713
609.00	0.016795
610.00	0.016701
611.00	0.016692
612.00	0.016770
613.00	0.017091
614.00	0.017334
615.00	0.017744
616.00	0.018156
617.00	0.018694
618.00	0.019337
619.00	0.020256
620.00	0.021475
621.00	0.022454
622.00	0.024117
623.00	0.025722
624.00	0.027646
625.00	0.029656
626.00	0.031974
627.00	0.034910
628.00	0.037440
629.00	0.040296
630.00	0.043274
631.00	0.046141
632.00	0.049355
633.00	0.052127
634.00	0.055095
635.00	0.057598
636.00	0.059927
637.00	0.061747
638.00	0.063504
639.00	0.065251
640.00	0.066534
641.00	0.067360
642.00	0.068021
643.00	0.068655
644.00	0.068896
645.00	0.068724
646.00	0.068613
647.00	0.068323
648.00	0.068310
649.00	0.067893
650.00	0.066803
651.00	0.066223
652.00	0.064966
653.00	0.063942
654.00	0.062677
655.00	0.061705
656.00	0.062305
657.00	0.058996
658.00	0.059702
659.00	0.057816
660.00	0.057990
661.00	0.057723
662.00	0.057500
663.00	0.056083
664.00	0.055980
665.00	0.056300
666.00	0.056004
667.00	0.056171
668.00	0.055910
669.00	0.055480
670.00	0.055480
671.00	0.055771
672.00	0.056072
673.00	0.056983
674.00	0.058690
675.00	0.059952
676.00	0.062321
677.00	0.065187
678.00	0.069190
679.00	0.074169
680.00	0.079547
681.00	0.087068
682.00	0.095699
683.00	0.10639
684.00	0.11894
685.00	0.13330
686.00	0.14822
687.00	0.16693
688.00	0.18712
689.00	0.21078
690.00	0.23606
691.00	0.26337
692.00	0.29054
693.00	0.32116
694.00	0.35041
695.00	0.38094
696.00	0.40783
697.00	0.43665
698.00	0.45881
699.00	0.47689
700.00	0.49076
701.00	0.49727
702.00	0.50214
703.00	0.49820
704.00	0.48759
705.00	0.47266
706.00	0.45221
707.00	0.42873
708.00	0.40006
709.00	0.36861
710.00	0.33563
711.00	0.30279
712.00	0.26916
713.00	0.23690
714.00	0.20776
715.00	0.17981
716.00	0.15552
717.00	0.13259
718.00	0.11215
719.00	0.094752
720.00	0.079595
721.00	0.066705
722.00	0.056441
723.00	0.047263
724.00	0.039758
725.00	0.033000
726.00	0.027955
727.00	0.023922
728.00	0.019996
729.00	0.017318
730.00	0.015735
731.00	0.013376
732.00	0.012035
733.00	0.010609
734.00	0.0094888
735.00	0.0085622
736.00	0.0077159
737.00	0.0071301
738.00	0.0070259
739.00	0.0063345
740.00	0.0058330
741.00	0.0057081
742.00	0.0052667
743.00	0.0047797
744.00	0.0046724
745.00	0.0044032
746.00	0.0039997
747.00	0.0043378
748.00	0.0041392
749.00	0.0035922
750.00	0.0040292
751.00	0.0034783
752.00	0.0035388
753.00	0.0036010
754.00	0.0032514
755.00	0.0032191
756.00	0.0030496
757.00	0.0028179
758.00	0.0028232
759.00	0.0029092
760.00	0.0025698
761.00	0.0027018
762.00	0.0026311
763.00	0.0026779
764.00	0.0024629
765.00	0.0025517
766.00	0.0024408
767.00	0.0022819
768.00	0.0019932
769.00	0.0022214
770.00	0.0025102
771.00	0.0024046
772.00	0.0023760
773.00	0.0020841
774.00	0.0019080
775.00	0.0018590
776.00	0.0020956
777.00	0.0019817
778.00	0.0020245
779.00	0.0013866
780.00	0.0017332
781.00	0.0018594
782.00	0.0020532
783.00	0.0016952
784.00	0.0019142
785.00	0.0012776
786.00	0.0019539
787.00	0.0016400
788.00	0.0017734
789.00	0.0014913
790.00	0.0017076
791.00	0.0015027
792.00	0.0013266
793.00	0.0016837
794.00	0.0013963
795.00	0.0016617
796.00	0.0020674
797.00	0.0012696
798.00	0.0016970
799.00	0.0016105
800.00	0.0016935
