Wavelength (nm)	H12 abs N
350.00	0.087424
351.00	0.089017
352.00	0.090803
353.00	0.092815
354.00	0.095093
355.00	0.097645
356.00	0.10034
357.00	0.10317
358.00	0.10570
359.00	0.10887
360.00	0.11221
361.00	0.11550
362.00	0.11864
363.00	0.12131
364.00	0.12422
365.00	0.12754
366.00	0.13089
367.00	0.13423
368.00	0.13713
369.00	0.14013
370.00	0.14432
371.00	0.14969
372.00	0.15534
373.00	0.16181
374.00	0.16837
375.00	0.17612
376.00	0.18421
377.00	0.19270
378.00	0.20165
379.00	0.20995
380.00	0.21743
381.00	0.22485
382.00	0.23189
383.00	0.23926
384.00	0.24619
385.00	0.25310
386.00	0.26050
387.00	0.26961
388.00	0.28047
389.00	0.29339
390.00	0.30747
391.00	0.32407
392.00	0.34411
393.00	0.36522
394.00	0.38739
395.00	0.41161
396.00	0.43818
397.00	0.46679
398.00	0.49855
399.00	0.53024
400.00	0.56326
401.00	0.59924
402.00	0.63677
403.00	0.67630
404.00	0.71737
405.00	0.75832
406.00	0.79695
407.00	0.83216
408.00	0.86950
409.00	0.90592
410.00	0.93512
411.00	0.95992
412.00	0.97905
413.00	0.99300
414.00	0.99802
415.00	1.0000
416.00	0.99245
417.00	0.98009
418.00	0.96300
419.00	0.94237
420.00	0.91899
421.00	0.88712
422.00	0.84774
423.00	0.80088
424.00	0.74733
425.00	0.68774
426.00	0.62394
427.00	0.55198
428.00	0.47999
429.00	0.40455
430.00	0.33429
431.00	0.27476
432.00	0.22091
433.00	0.17125
434.00	0.13279
435.00	0.10418
436.00	0.080858
437.00	0.063675
438.00	0.050428
439.00	0.040593
440.00	0.033328
441.00	0.027975
442.00	0.024307
443.00	0.021344
444.00	0.018931
445.00	0.017117
446.00	0.015939
447.00	0.014913
448.00	0.013933
449.00	0.013410
450.00	0.012662
451.00	0.012106
452.00	0.011621
453.00	0.011363
454.00	0.011163
455.00	0.010913
456.00	0.010788
457.00	0.010734
458.00	0.010697
459.00	0.010728
460.00	0.010667
461.00	0.010809
462.00	0.010549
463.00	0.010553
464.00	0.010915
465.00	0.011265
466.00	0.011522
467.00	0.011397
468.00	0.011744
469.00	0.011937
470.00	0.012371
471.00	0.012630
472.00	0.013034
473.00	0.013623
474.00	0.014280
475.00	0.015046
476.00	0.015785
477.00	0.016345
478.00	0.017002
479.00	0.017738
480.00	0.019048
481.00	0.020016
482.00	0.021020
483.00	0.021882
484.00	0.022880
485.00	0.024254
486.00	0.025644
487.00	0.025968
488.00	0.026571
489.00	0.028070
490.00	0.029434
491.00	0.030603
492.00	0.031648
493.00	0.033129
494.00	0.034514
495.00	0.036075
496.00	0.037972
497.00	0.039719
498.00	0.041410
499.00	0.043553
500.00	0.045667
501.00	0.047958
502.00	0.050310
503.00	0.052889
504.00	0.055397
505.00	0.058322
506.00	0.061559
507.00	0.064620
508.00	0.067596
509.00	0.069851
510.00	0.071474
511.00	0.072429
512.00	0.072562
513.00	0.071887
514.00	0.070994
515.00	0.069702
516.00	0.067938
517.00	0.065499
518.00	0.062848
519.00	0.059291
520.00	0.055154
521.00	0.050729
522.00	0.046042
523.00	0.041131
524.00	0.036741
525.00	0.032474
526.00	0.028571
527.00	0.025566
528.00	0.022843
529.00	0.020559
530.00	0.018893
531.00	0.017494
532.00	0.016713
533.00	0.016874
534.00	0.017271
535.00	0.018473
536.00	0.020575
537.00	0.023255
538.00	0.026414
539.00	0.029343
540.00	0.031977
541.00	0.034715
542.00	0.037298
543.00	0.039303
544.00	0.040725
545.00	0.041529
546.00	0.041617
547.00	0.041166
548.00	0.040076
549.00	0.038397
550.00	0.035917
551.00	0.032925
552.00	0.029805
553.00	0.026677
554.00	0.023486
555.00	0.020548
556.00	0.017874
557.00	0.015613
558.00	0.013441
559.00	0.011978
560.00	0.010544
561.00	0.0094069
562.00	0.0085194
563.00	0.0076193
564.00	0.0071085
565.00	0.0066065
566.00	0.0060117
567.00	0.0056780
568.00	0.0053698
569.00	0.0054060
570.00	0.0055605
571.00	0.0057504
572.00	0.0061575
573.00	0.0065528
574.00	0.0072367
575.00	0.0080048
576.00	0.0084960
577.00	0.0090106
578.00	0.010195
579.00	0.011211
580.00	0.013542
581.00	0.016542
582.00	0.020493
583.00	0.024186
584.00	0.028419
585.00	0.031576
586.00	0.032455
587.00	0.032099
588.00	0.031438
589.00	0.031008
590.00	0.031352
591.00	0.031881
592.00	0.031977
593.00	0.031444
594.00	0.030357
595.00	0.028808
596.00	0.027060
597.00	0.024695
598.00	0.022037
599.00	0.019251
600.00	0.016567
601.00	0.014245
602.00	0.012294
603.00	0.010820
604.00	0.0098883
605.00	0.0089128
606.00	0.0080947
607.00	0.0074891
608.00	0.0068326
609.00	0.0062925
610.00	0.0059686
611.00	0.0055176
612.00	0.0053483
613.00	0.0052739
614.00	0.0050547
615.00	0.0050968
616.00	0.0050910
617.00	0.0049726
618.00	0.0048581
619.00	0.0047259
620.00	0.0046193
621.00	0.0046555
622.00	0.0046898
623.00	0.0050919
624.00	0.0054941
625.00	0.0064412
626.00	0.0079284
627.00	0.010033
628.00	0.012400
629.00	0.014683
630.00	0.016571
631.00	0.017855
632.00	0.018645
633.00	0.019072
634.00	0.019901
635.00	0.021653
636.00	0.025240
637.00	0.031988
638.00	0.043232
639.00	0.059222
640.00	0.078975
641.00	0.098949
642.00	0.11366
643.00	0.11859
644.00	0.11364
645.00	0.10034
646.00	0.082576
647.00	0.064636
648.00	0.048828
649.00	0.035710
650.00	0.025941
651.00	0.018696
652.00	0.013783
653.00	0.010461
654.00	0.0084177
655.00	0.0062397
656.00	0.0054441
657.00	0.0047983
658.00	0.0036457
659.00	0.0030509
660.00	0.0024872
661.00	0.0020137
662.00	0.0015802
663.00	0.0012701
664.00	0.0011478
665.00	0.00097357
666.00	0.00083658
667.00	0.00056261
668.00	0.00048727
669.00	0.00063013
670.00	0.00048727
671.00	0.00047455
672.00	0.00047748
673.00	0.00049217
674.00	0.00043053
675.00	0.00031213
676.00	0.00036888
677.00	0.00042270
678.00	0.00044422
679.00	0.00041683
680.00	0.00037279
681.00	0.00036399
682.00	0.00038747
683.00	0.00031311
684.00	0.00037475
685.00	0.00037573
686.00	0.00040215
687.00	0.00031995
688.00	0.00036594
689.00	0.00041095
690.00	0.00037866
691.00	0.00033268
692.00	0.00040606
693.00	0.00034246
694.00	0.00032191
695.00	0.00033757
696.00	0.00031409
697.00	0.00032094
698.00	0.00042171
699.00	0.00033072
700.00	0.00032681
