Wavelength (nm)	T16 BChl a abs N
300.00	0.21216
300.20	0.21332
300.40	0.21387
300.60	0.21453
300.80	0.21503
301.00	0.21698
301.20	0.21745
301.40	0.21858
301.60	0.21945
301.80	0.22079
302.00	0.22079
302.20	0.22111
302.40	0.22334
302.60	0.22342
302.80	0.22421
303.00	0.22445
303.20	0.22416
303.40	0.22511
303.60	0.22682
303.80	0.22582
304.00	0.22753
304.20	0.22811
304.40	0.22703
304.60	0.22827
304.80	0.22879
305.00	0.22819
305.20	0.22834
305.40	0.22834
305.60	0.22971
305.80	0.23145
306.00	0.23082
306.20	0.23032
306.40	0.23116
306.60	0.23100
306.80	0.23095
307.00	0.23177
307.20	0.22987
307.40	0.23071
307.60	0.22987
307.80	0.23061
308.00	0.22874
308.20	0.22900
308.40	0.22848
308.60	0.22953
308.80	0.22895
309.00	0.22908
309.20	0.22887
309.40	0.22798
309.60	0.22677
309.80	0.22755
310.00	0.22758
310.20	0.22700
310.40	0.22648
310.60	0.22684
310.80	0.22595
311.00	0.22611
311.20	0.22550
311.40	0.22584
311.60	0.22532
311.80	0.22563
312.00	0.22527
312.20	0.22477
312.40	0.22498
312.60	0.22437
312.80	0.22463
313.00	0.22348
313.20	0.22487
313.40	0.22377
313.60	0.22558
313.80	0.22540
314.00	0.22634
314.20	0.22661
314.40	0.22663
314.60	0.22684
314.80	0.22734
315.00	0.22779
315.20	0.22742
315.40	0.22869
315.60	0.22750
315.80	0.22779
316.00	0.22969
316.20	0.23169
316.40	0.23074
316.60	0.23179
316.80	0.23240
317.00	0.23261
317.20	0.23476
317.40	0.23521
317.60	0.23663
317.80	0.23779
318.00	0.23916
318.20	0.24058
318.40	0.24103
318.60	0.24276
318.80	0.24350
319.00	0.24258
319.20	0.24453
319.40	0.24634
319.60	0.24671
319.80	0.24889
320.00	0.24968
320.20	0.25063
320.40	0.25137
320.60	0.25313
320.80	0.25571
321.00	0.25487
321.20	0.25947
321.40	0.25821
321.60	0.26024
321.80	0.26187
322.00	0.26229
322.20	0.26468
322.40	0.26424
322.60	0.26787
322.80	0.26884
323.00	0.26939
323.20	0.27187
323.40	0.27223
323.60	0.27437
323.80	0.27518
324.00	0.27776
324.20	0.27865
324.40	0.28118
324.60	0.28208
324.80	0.28458
325.00	0.28629
325.20	0.28658
325.40	0.28918
325.60	0.29057
325.80	0.29357
326.00	0.29352
326.20	0.29568
326.40	0.29899
326.60	0.29994
326.80	0.30231
327.00	0.30276
327.20	0.30513
327.40	0.30728
327.60	0.30847
327.80	0.31107
328.00	0.31252
328.20	0.31473
328.40	0.31597
328.60	0.31744
328.80	0.31852
329.00	0.32220
329.20	0.32378
329.40	0.32683
329.60	0.32786
329.80	0.33010
330.00	0.33078
330.20	0.33246
330.40	0.33560
330.60	0.33586
330.80	0.33899
331.00	0.33896
331.20	0.34189
331.40	0.34310
331.60	0.34575
331.80	0.34796
332.00	0.35136
332.20	0.35223
332.40	0.35380
332.60	0.35575
332.80	0.35801
333.00	0.35996
333.20	0.36107
333.40	0.36233
333.60	0.36588
333.80	0.36759
334.00	0.36912
334.20	0.37136
334.40	0.37504
334.60	0.37628
334.80	0.37762
335.00	0.37946
335.20	0.38178
335.40	0.38478
335.60	0.38646
335.80	0.38801
336.00	0.39001
336.20	0.39275
336.40	0.39356
336.60	0.39722
336.80	0.39962
337.00	0.40154
337.20	0.40422
337.40	0.40696
337.60	0.40909
337.80	0.41180
338.00	0.41377
338.20	0.41677
338.40	0.41901
338.60	0.42235
338.80	0.42496
339.00	0.42680
339.20	0.42845
339.40	0.43106
339.60	0.43398
339.80	0.43695
340.00	0.43864
340.20	0.44151
340.40	0.44445
340.60	0.44685
340.80	0.44956
341.00	0.45277
341.20	0.45458
341.40	0.45769
341.60	0.46079
341.80	0.46243
342.00	0.46577
342.20	0.46748
342.40	0.47190
342.60	0.47377
342.80	0.47595
343.00	0.47919
343.20	0.48158
343.40	0.48505
343.60	0.48753
343.80	0.48937
344.00	0.49482
344.20	0.49655
344.40	0.49984
344.60	0.50118
344.80	0.50468
345.00	0.50737
345.20	0.51029
345.40	0.51368
345.60	0.51637
345.80	0.51889
346.00	0.52179
346.20	0.52529
346.40	0.52837
346.60	0.53100
346.80	0.53389
347.00	0.53702
347.20	0.54076
347.40	0.54410
347.60	0.54697
347.80	0.55092
348.00	0.55255
348.20	0.55678
348.40	0.56039
348.60	0.56378
348.80	0.56665
349.00	0.57026
349.20	0.57357
349.40	0.57620
349.60	0.58036
349.80	0.58383
350.00	0.58810
350.20	0.59217
350.40	0.59510
350.60	0.59909
350.80	0.60165
351.00	0.60728
351.20	0.61146
351.40	0.61667
351.60	0.61796
351.80	0.62370
352.00	0.62699
352.20	0.62991
352.40	0.63351
352.60	0.63712
352.80	0.64167
353.00	0.64672
353.20	0.65046
353.40	0.65496
353.60	0.65875
353.80	0.66246
354.00	0.66756
354.20	0.67201
354.40	0.67572
354.60	0.67969
354.80	0.68401
355.00	0.68769
355.20	0.69206
355.40	0.69619
355.60	0.70043
355.80	0.70453
356.00	0.70835
356.20	0.71206
356.40	0.71600
356.60	0.72029
356.80	0.72384
357.00	0.72711
357.20	0.73053
357.40	0.73332
357.60	0.73653
357.80	0.74013
358.00	0.74395
358.20	0.74666
358.40	0.75037
358.60	0.75213
358.80	0.75410
359.00	0.75634
359.20	0.75818
359.40	0.76045
359.60	0.76166
359.80	0.76392
360.00	0.76502
360.20	0.76587
360.40	0.76676
360.60	0.76737
360.80	0.76774
361.00	0.76708
361.20	0.76818
361.40	0.76766
361.60	0.76745
361.80	0.76597
362.00	0.76474
362.20	0.76489
362.40	0.76231
362.60	0.76131
362.80	0.75847
363.00	0.75618
363.20	0.75397
363.40	0.75111
363.60	0.74821
363.80	0.74516
364.00	0.74179
364.20	0.73874
364.40	0.73532
364.60	0.73119
364.80	0.72734
365.00	0.72332
365.20	0.71932
365.40	0.71529
365.60	0.71116
365.80	0.70658
366.00	0.70229
366.20	0.69766
366.40	0.69269
366.60	0.68835
366.80	0.68282
367.00	0.67735
367.20	0.67235
367.40	0.66751
367.60	0.66288
367.80	0.65727
368.00	0.65248
368.20	0.64704
368.40	0.64162
368.60	0.63691
368.80	0.63212
369.00	0.62641
369.20	0.62165
369.40	0.61749
369.60	0.61254
369.80	0.60702
370.00	0.60223
370.20	0.59746
370.40	0.59283
370.60	0.58891
370.80	0.58378
371.00	0.58036
371.20	0.57647
371.40	0.57170
371.60	0.56876
371.80	0.56441
372.00	0.56120
372.20	0.55752
372.40	0.55318
372.60	0.54921
372.80	0.54615
373.00	0.54318
373.20	0.53939
373.40	0.53663
373.60	0.53271
373.80	0.53094
374.00	0.52747
374.20	0.52466
374.40	0.52231
374.60	0.51947
374.80	0.51724
375.00	0.51537
375.20	0.51310
375.40	0.51087
375.60	0.50924
375.80	0.50745
376.00	0.50542
376.20	0.50308
376.40	0.50260
376.60	0.50008
376.80	0.49850
377.00	0.49750
377.20	0.49642
377.40	0.49455
377.60	0.49440
377.80	0.49226
378.00	0.49142
378.20	0.49032
378.40	0.48905
378.60	0.48869
378.80	0.48790
379.00	0.48726
379.20	0.48711
379.40	0.48582
379.60	0.48524
379.80	0.48442
380.00	0.48413
380.20	0.48311
380.40	0.48232
380.60	0.48169
380.80	0.48174
381.00	0.48092
381.20	0.48055
381.40	0.47961
381.60	0.47992
381.80	0.47995
382.00	0.47919
382.20	0.47848
382.40	0.47821
382.60	0.47724
382.80	0.47690
383.00	0.47719
383.20	0.47592
383.40	0.47548
383.60	0.47540
383.80	0.47463
384.00	0.47434
384.20	0.47348
384.40	0.47308
384.60	0.47200
384.80	0.47137
385.00	0.47071
385.20	0.47074
385.40	0.46977
385.60	0.46913
385.80	0.46887
386.00	0.46774
386.20	0.46756
386.40	0.46735
386.60	0.46661
386.80	0.46614
387.00	0.46598
387.20	0.46603
387.40	0.46548
387.60	0.46466
387.80	0.46453
388.00	0.46485
388.20	0.46498
388.40	0.46437
388.60	0.46535
388.80	0.46619
389.00	0.46564
389.20	0.46585
389.40	0.46603
389.60	0.46661
389.80	0.46624
390.00	0.46671
390.20	0.46748
390.40	0.46761
390.60	0.46800
390.80	0.46929
391.00	0.47006
391.20	0.47087
391.40	0.47161
391.60	0.47253
391.80	0.47263
392.00	0.47363
392.20	0.47456
392.40	0.47534
392.60	0.47619
392.80	0.47782
393.00	0.47937
393.20	0.47969
393.40	0.48155
393.60	0.48300
393.80	0.48345
394.00	0.48490
394.20	0.48555
394.40	0.48540
394.60	0.48619
394.80	0.48679
395.00	0.48826
395.20	0.48805
395.40	0.48882
395.60	0.48863
395.80	0.48919
396.00	0.48926
396.20	0.48919
396.40	0.48955
396.60	0.48932
396.80	0.48845
397.00	0.48769
397.20	0.48642
397.40	0.48537
397.60	0.48371
397.80	0.48211
398.00	0.48063
398.20	0.47877
398.40	0.47611
398.60	0.47387
398.80	0.47077
399.00	0.46853
399.20	0.46479
399.40	0.46098
399.60	0.45827
399.80	0.45435
400.00	0.45022
400.20	0.44643
400.40	0.44137
400.60	0.43645
400.80	0.43159
401.00	0.42646
401.20	0.42119
401.40	0.41561
401.60	0.40996
401.80	0.40406
402.00	0.39864
402.20	0.39246
402.40	0.38635
402.60	0.38009
402.80	0.37414
403.00	0.36733
403.20	0.36051
403.40	0.35433
403.60	0.34775
403.80	0.34089
404.00	0.33510
404.20	0.32812
404.40	0.32049
404.60	0.31389
404.80	0.30684
405.00	0.30128
405.20	0.29423
405.40	0.28747
405.60	0.28192
405.80	0.27479
406.00	0.26855
406.20	0.26258
406.40	0.25618
406.60	0.25000
406.80	0.24484
407.00	0.23819
407.20	0.23274
407.40	0.22758
407.60	0.22269
407.80	0.21745
408.00	0.21206
408.20	0.20745
408.40	0.20174
408.60	0.19690
408.80	0.19203
409.00	0.18795
409.20	0.18319
409.40	0.17893
409.60	0.17432
409.80	0.17032
410.00	0.16638
410.20	0.16314
410.40	0.15922
410.60	0.15512
410.80	0.15212
411.00	0.14906
411.20	0.14591
411.40	0.14201
411.60	0.13899
411.80	0.13638
412.00	0.13420
412.20	0.13114
412.40	0.12817
412.60	0.12570
412.80	0.12312
413.00	0.12101
413.20	0.11893
413.40	0.11741
413.60	0.11454
413.80	0.11322
414.00	0.11104
414.20	0.10928
414.40	0.10728
414.60	0.10570
414.80	0.10420
415.00	0.10220
415.20	0.10086
415.40	0.099884
415.60	0.098121
415.80	0.096648
416.00	0.095279
416.20	0.093964
416.40	0.092990
416.60	0.092490
416.80	0.090806
417.00	0.089622
417.20	0.088675
417.40	0.087859
417.60	0.086965
417.80	0.085754
418.00	0.084728
418.20	0.084044
418.40	0.083070
418.60	0.082965
418.80	0.081044
419.00	0.080307
419.20	0.080281
419.40	0.079650
419.60	0.078676
419.80	0.077281
420.00	0.077544
420.20	0.076729
420.40	0.076360
420.60	0.076071
420.80	0.075334
421.00	0.074019
421.20	0.073519
421.40	0.072966
421.60	0.072913
421.80	0.072492
422.00	0.071782
422.20	0.071756
422.40	0.070887
422.60	0.070466
422.80	0.070045
423.00	0.069414
423.20	0.068598
423.40	0.068045
423.60	0.069072
423.80	0.068203
424.00	0.067782
424.20	0.067098
424.40	0.066888
424.60	0.066177
424.80	0.066414
425.00	0.065625
425.20	0.065625
425.40	0.064730
425.60	0.064072
425.80	0.064256
426.00	0.063914
426.20	0.063257
426.40	0.063178
426.60	0.062704
426.80	0.062151
427.00	0.062020
427.20	0.062046
427.40	0.061651
427.60	0.061467
427.80	0.061020
428.00	0.060309
428.20	0.060809
428.40	0.060178
428.60	0.059941
428.80	0.059257
429.00	0.059099
429.20	0.059099
429.40	0.058520
429.60	0.058573
429.80	0.058047
430.00	0.058310
430.20	0.057704
430.40	0.057678
430.60	0.057310
430.80	0.057231
431.00	0.057520
431.20	0.057494
431.40	0.057704
431.60	0.057178
431.80	0.057020
432.00	0.055994
432.20	0.056310
432.40	0.056178
432.60	0.056441
432.80	0.055547
433.00	0.055284
433.20	0.055468
433.40	0.055494
433.60	0.055599
433.80	0.054889
434.00	0.054547
434.20	0.054363
434.40	0.054205
434.60	0.053889
434.80	0.054021
435.00	0.053468
435.20	0.053573
435.40	0.053600
435.60	0.053231
435.80	0.052915
436.00	0.053152
436.20	0.052810
436.40	0.052600
436.60	0.051889
436.80	0.052363
437.00	0.051652
437.20	0.051889
437.40	0.051916
437.60	0.051258
437.80	0.051600
438.00	0.051179
438.20	0.050889
438.40	0.049547
438.60	0.050284
438.80	0.049889
439.00	0.049574
439.20	0.048811
439.40	0.048890
439.60	0.048784
439.80	0.048811
440.00	0.048574
440.20	0.048337
440.40	0.048205
440.60	0.047863
440.80	0.048179
441.00	0.047495
441.20	0.047363
441.40	0.047100
441.60	0.047363
441.80	0.046995
442.00	0.046785
442.20	0.046127
442.40	0.046232
442.60	0.046469
442.80	0.045390
443.00	0.045469
443.20	0.045337
443.40	0.045785
443.60	0.045101
443.80	0.043864
444.00	0.043916
444.20	0.043943
444.40	0.043522
444.60	0.043232
444.80	0.043022
445.00	0.041917
445.20	0.042838
445.40	0.042601
445.60	0.042574
445.80	0.042101
446.00	0.042417
446.20	0.041627
446.40	0.041154
446.60	0.041654
446.80	0.041206
447.00	0.041154
447.20	0.040785
447.40	0.040469
447.60	0.039996
447.80	0.039943
448.00	0.039838
448.20	0.039917
448.40	0.039496
448.60	0.039654
448.80	0.038654
449.00	0.038680
449.20	0.038864
449.40	0.037917
449.60	0.037785
449.80	0.037838
450.00	0.038943
450.20	0.038233
450.40	0.038312
450.60	0.037943
450.80	0.037707
451.00	0.037312
451.20	0.037549
451.40	0.036733
451.60	0.036601
451.80	0.036970
452.00	0.036549
452.20	0.035891
452.40	0.036049
452.60	0.035786
452.80	0.035838
453.00	0.035102
453.20	0.034812
453.40	0.034944
453.60	0.034891
453.80	0.035075
454.00	0.034075
454.20	0.033707
454.40	0.033839
454.60	0.033970
454.80	0.033575
455.00	0.033312
455.20	0.033181
455.40	0.032970
455.60	0.032760
455.80	0.032628
456.00	0.032470
456.20	0.032391
456.40	0.032391
456.60	0.032444
456.80	0.031970
457.00	0.031365
457.20	0.032260
457.40	0.031602
457.60	0.031655
457.80	0.031076
458.00	0.031339
458.20	0.031023
458.40	0.030944
458.60	0.030681
458.80	0.030497
459.00	0.030944
459.20	0.030576
459.40	0.030339
459.60	0.030234
459.80	0.030049
460.00	0.029865
460.20	0.030181
460.40	0.030102
460.60	0.030181
460.80	0.029076
461.00	0.029392
461.20	0.028865
461.40	0.029418
461.60	0.029234
461.80	0.028813
462.00	0.028365
462.20	0.028471
462.40	0.028760
462.60	0.028129
462.80	0.028734
463.00	0.027997
463.20	0.028102
463.40	0.027602
463.60	0.027523
463.80	0.028102
464.00	0.027602
464.20	0.027287
464.40	0.027997
464.60	0.027708
464.80	0.027076
465.00	0.027339
465.20	0.027102
465.40	0.027208
465.60	0.026866
465.80	0.026839
466.00	0.026260
466.20	0.026471
466.40	0.026497
466.60	0.026366
466.80	0.026181
467.00	0.026418
467.20	0.025918
467.40	0.026313
467.60	0.026076
467.80	0.025787
468.00	0.025629
468.20	0.025734
468.40	0.025155
468.60	0.025366
468.80	0.025813
469.00	0.025208
469.20	0.025313
469.40	0.025339
469.60	0.024497
469.80	0.024787
470.00	0.024813
470.20	0.024708
470.40	0.024576
470.60	0.024918
470.80	0.024208
471.00	0.024287
471.20	0.024155
471.40	0.023787
471.60	0.024234
471.80	0.024103
472.00	0.024182
472.20	0.023787
472.40	0.023892
472.60	0.023261
472.80	0.023682
473.00	0.023919
473.20	0.023392
473.40	0.023840
473.60	0.023313
473.80	0.022945
474.00	0.023392
474.20	0.023392
474.40	0.023024
474.60	0.022998
474.80	0.022603
475.00	0.023129
475.20	0.023155
475.40	0.022603
475.60	0.022577
475.80	0.021971
476.00	0.022550
476.20	0.022524
476.40	0.022208
476.60	0.022471
476.80	0.022156
477.00	0.022050
477.20	0.022077
477.40	0.022261
477.60	0.022103
477.80	0.021945
478.00	0.022156
478.20	0.022103
478.40	0.021787
478.60	0.021840
478.80	0.021577
479.00	0.021445
479.20	0.021366
479.40	0.021498
479.60	0.021840
479.80	0.021366
480.00	0.021208
480.20	0.021761
480.40	0.022077
480.60	0.021419
480.80	0.021314
481.00	0.020893
481.20	0.021340
481.40	0.021314
481.60	0.021156
481.80	0.021261
482.00	0.021603
482.20	0.021182
482.40	0.020866
482.60	0.021392
482.80	0.021208
483.00	0.020866
483.20	0.020919
483.40	0.020866
483.60	0.020814
483.80	0.020761
484.00	0.020971
484.20	0.021208
484.40	0.020919
484.60	0.020656
484.80	0.021235
485.00	0.020682
485.20	0.020366
485.40	0.020787
485.60	0.020840
485.80	0.021024
486.00	0.020498
486.20	0.020393
486.40	0.020550
486.60	0.020472
486.80	0.020814
487.00	0.020656
487.20	0.020971
487.40	0.020787
487.60	0.021129
487.80	0.020472
488.00	0.020603
488.20	0.020945
488.40	0.020761
488.60	0.020524
488.80	0.020445
489.00	0.020629
489.20	0.020498
489.40	0.020893
489.60	0.020472
489.80	0.020419
490.00	0.020472
490.20	0.020971
490.40	0.020919
490.60	0.021024
490.80	0.020971
491.00	0.020971
491.20	0.020682
491.40	0.020656
491.60	0.021024
491.80	0.020314
492.00	0.020919
492.20	0.020971
492.40	0.020498
492.60	0.020735
492.80	0.020840
493.00	0.021156
493.20	0.020445
493.40	0.021077
493.60	0.020866
493.80	0.020945
494.00	0.021050
494.20	0.020919
494.40	0.020708
494.60	0.020682
494.80	0.020814
495.00	0.021156
495.20	0.020524
495.40	0.021629
495.60	0.020603
495.80	0.020866
496.00	0.021761
496.20	0.021682
496.40	0.021682
496.60	0.021629
496.80	0.021735
497.00	0.021971
497.20	0.021840
497.40	0.021866
497.60	0.021840
497.80	0.021682
498.00	0.021656
498.20	0.022261
498.40	0.021892
498.60	0.021919
498.80	0.021998
499.00	0.021945
499.20	0.021682
499.40	0.021603
499.60	0.021287
499.80	0.021314
500.00	0.020971
500.20	0.021103
500.40	0.021050
500.60	0.020656
500.80	0.020840
501.00	0.021392
501.20	0.021077
501.40	0.021235
501.60	0.021419
501.80	0.020919
502.00	0.020708
502.20	0.021182
502.40	0.021077
502.60	0.020735
502.80	0.020077
503.00	0.020472
503.20	0.020208
503.40	0.020577
503.60	0.021077
503.80	0.020472
504.00	0.020524
504.20	0.020445
504.40	0.020498
504.60	0.020182
504.80	0.020577
505.00	0.019972
505.20	0.020314
505.40	0.020208
505.60	0.020550
505.80	0.020682
506.00	0.020314
506.20	0.020287
506.40	0.019735
506.60	0.019787
506.80	0.020340
507.00	0.020761
507.20	0.020998
507.40	0.021050
507.60	0.020893
507.80	0.021077
508.00	0.020682
508.20	0.020735
508.40	0.020787
508.60	0.020840
508.80	0.021050
509.00	0.020287
509.20	0.021314
509.40	0.020814
509.60	0.021129
509.80	0.020945
510.00	0.020866
510.20	0.020524
510.40	0.021103
510.60	0.020577
510.80	0.021577
511.00	0.020998
511.20	0.020603
511.40	0.021077
511.60	0.021182
511.80	0.021077
512.00	0.020735
512.20	0.021445
512.40	0.021050
512.60	0.021287
512.80	0.021419
513.00	0.021629
513.20	0.021050
513.40	0.021261
513.60	0.021603
513.80	0.021761
514.00	0.021498
514.20	0.022235
514.40	0.022313
514.60	0.021577
514.80	0.022129
515.00	0.022235
515.20	0.022103
515.40	0.021813
515.60	0.022445
515.80	0.022287
516.00	0.022498
516.20	0.022524
516.40	0.022734
516.60	0.022998
516.80	0.022708
517.00	0.022998
517.20	0.022892
517.40	0.023419
517.60	0.023208
517.80	0.023761
518.00	0.023471
518.20	0.023576
518.40	0.023603
518.60	0.023655
518.80	0.024103
519.00	0.024129
519.20	0.024208
519.40	0.024340
519.60	0.024024
519.80	0.025155
520.00	0.025208
520.20	0.024839
520.40	0.025260
520.60	0.024918
520.80	0.025682
521.00	0.025050
521.20	0.026181
521.40	0.026181
521.60	0.026471
521.80	0.026734
522.00	0.027076
522.20	0.026945
522.40	0.027287
522.60	0.027865
522.80	0.027366
523.00	0.028129
523.20	0.027892
523.40	0.028497
523.60	0.028155
523.80	0.028523
524.00	0.028839
524.20	0.029050
524.40	0.029234
524.60	0.029865
524.80	0.030128
525.00	0.029997
525.20	0.030365
525.40	0.030839
525.60	0.030970
525.80	0.031312
526.00	0.031497
526.20	0.031602
526.40	0.032497
526.60	0.032339
526.80	0.032733
527.00	0.032707
527.20	0.033339
527.40	0.033312
527.60	0.033654
527.80	0.034233
528.00	0.034417
528.20	0.034654
528.40	0.035049
528.60	0.034917
528.80	0.035470
529.00	0.035654
529.20	0.035970
529.40	0.036128
529.60	0.036628
529.80	0.037470
530.00	0.037443
530.20	0.037286
530.40	0.037759
530.60	0.038496
530.80	0.038259
531.00	0.039233
531.20	0.039259
531.40	0.039470
531.60	0.039838
531.80	0.040075
532.00	0.040680
532.20	0.040206
532.40	0.040917
532.60	0.041338
532.80	0.041390
533.00	0.041732
533.20	0.042232
533.40	0.042443
533.60	0.042574
533.80	0.042680
534.00	0.043285
534.20	0.042969
534.40	0.043627
534.60	0.044311
534.80	0.044206
535.00	0.044443
535.20	0.044732
535.40	0.045048
535.60	0.045495
535.80	0.045916
536.00	0.045995
536.20	0.046337
536.40	0.046627
536.60	0.046495
536.80	0.046942
537.00	0.046600
537.20	0.047100
537.40	0.047442
537.60	0.047679
537.80	0.047495
538.00	0.047706
538.20	0.048258
538.40	0.048784
538.60	0.049047
538.80	0.049074
539.00	0.049390
539.20	0.050021
539.40	0.049416
539.60	0.049600
539.80	0.050205
540.00	0.050047
540.20	0.050442
540.40	0.050153
540.60	0.050968
540.80	0.050705
541.00	0.050916
541.20	0.051705
541.40	0.051468
541.60	0.051784
541.80	0.051916
542.00	0.051810
542.20	0.052547
542.40	0.052310
542.60	0.052626
542.80	0.052547
543.00	0.052126
543.20	0.053073
543.40	0.053310
543.60	0.053152
543.80	0.053600
544.00	0.053652
544.20	0.053731
544.40	0.054547
544.60	0.054442
544.80	0.054205
545.00	0.054600
545.20	0.054863
545.40	0.055021
545.60	0.054968
545.80	0.055415
546.00	0.055442
546.20	0.055652
546.40	0.055442
546.60	0.056152
546.80	0.056020
547.00	0.056678
547.20	0.056573
547.40	0.057047
547.60	0.056915
547.80	0.057231
548.00	0.057520
548.20	0.058047
548.40	0.057968
548.60	0.058125
548.80	0.058389
549.00	0.059257
549.20	0.059073
549.40	0.059625
549.60	0.059809
549.80	0.059888
550.00	0.060678
550.20	0.060967
550.40	0.061388
550.60	0.061204
550.80	0.062020
551.00	0.062546
551.20	0.062993
551.40	0.063125
551.60	0.063783
551.80	0.064204
552.00	0.065362
552.20	0.065177
552.40	0.065993
552.60	0.066493
552.80	0.066940
553.00	0.067467
553.20	0.067677
553.40	0.068493
553.60	0.069098
553.80	0.070361
554.00	0.070650
554.20	0.071466
554.40	0.072282
554.60	0.073177
554.80	0.073255
555.00	0.074545
555.20	0.075045
555.40	0.076281
555.60	0.076729
555.80	0.078150
556.00	0.078729
556.20	0.079781
556.40	0.081070
556.60	0.081570
556.80	0.082728
557.00	0.083491
557.20	0.084281
557.40	0.085596
557.60	0.087017
557.80	0.087754
558.00	0.088491
558.20	0.090017
558.40	0.091148
558.60	0.092990
558.80	0.094148
559.00	0.095516
559.20	0.096806
559.40	0.097832
559.60	0.099200
559.80	0.10067
560.00	0.10191
560.20	0.10309
560.40	0.10491
560.60	0.10673
560.80	0.10804
561.00	0.10967
561.20	0.11109
561.40	0.11228
561.60	0.11394
561.80	0.11575
562.00	0.11728
562.20	0.11870
562.40	0.12107
562.60	0.12262
562.80	0.12364
563.00	0.12586
563.20	0.12704
563.40	0.12904
563.60	0.13104
563.80	0.13272
564.00	0.13483
564.20	0.13656
564.40	0.13896
564.60	0.14027
564.80	0.14235
565.00	0.14456
565.20	0.14633
565.40	0.14809
565.60	0.15012
565.80	0.15214
566.00	0.15435
566.20	0.15612
566.40	0.15825
566.60	0.15946
566.80	0.16217
567.00	0.16419
567.20	0.16614
567.40	0.16772
567.60	0.16998
567.80	0.17182
568.00	0.17414
568.20	0.17590
568.40	0.17809
568.60	0.18006
568.80	0.18230
569.00	0.18416
569.20	0.18619
569.40	0.18819
569.60	0.18982
569.80	0.19161
570.00	0.19406
570.20	0.19658
570.40	0.19882
570.60	0.20095
570.80	0.20279
571.00	0.20464
571.20	0.20648
571.40	0.20829
571.60	0.21077
571.80	0.21203
572.00	0.21332
572.20	0.21627
572.40	0.21745
572.60	0.21950
572.80	0.22077
573.00	0.22311
573.20	0.22458
573.40	0.22595
573.60	0.22763
573.80	0.22884
574.00	0.23087
574.20	0.23232
574.40	0.23392
574.60	0.23503
574.80	0.23708
575.00	0.23779
575.20	0.23987
575.40	0.24087
575.60	0.24190
575.80	0.24279
576.00	0.24442
576.20	0.24511
576.40	0.24674
576.60	0.24676
576.80	0.24839
577.00	0.24903
577.20	0.25026
577.40	0.25095
577.60	0.25158
577.80	0.25218
578.00	0.25345
578.20	0.25379
578.40	0.25382
578.60	0.25392
578.80	0.25484
579.00	0.25560
579.20	0.25555
579.40	0.25579
579.60	0.25579
579.80	0.25610
580.00	0.25621
580.20	0.25647
580.40	0.25584
580.60	0.25613
580.80	0.25579
581.00	0.25532
581.20	0.25547
581.40	0.25497
581.60	0.25416
581.80	0.25366
582.00	0.25358
582.20	0.25282
582.40	0.25205
582.60	0.25103
582.80	0.25068
583.00	0.24955
583.20	0.24884
583.40	0.24776
583.60	0.24679
583.80	0.24529
584.00	0.24437
584.20	0.24321
584.40	0.24203
584.60	0.24069
584.80	0.23900
585.00	0.23719
585.20	0.23632
585.40	0.23484
585.60	0.23292
585.80	0.23161
586.00	0.22977
586.20	0.22779
586.40	0.22645
586.60	0.22427
586.80	0.22179
587.00	0.22008
587.20	0.21808
587.40	0.21624
587.60	0.21374
587.80	0.21135
588.00	0.21000
588.20	0.20753
588.40	0.20527
588.60	0.20264
588.80	0.20090
589.00	0.19895
589.20	0.19574
589.40	0.19340
589.60	0.19090
589.80	0.18890
590.00	0.18648
590.20	0.18427
590.40	0.18209
590.60	0.17898
590.80	0.17674
591.00	0.17451
591.20	0.17169
591.40	0.16935
591.60	0.16646
591.80	0.16485
592.00	0.16204
592.20	0.15938
592.40	0.15709
592.60	0.15464
592.80	0.15277
593.00	0.14988
593.20	0.14741
593.40	0.14530
593.60	0.14285
593.80	0.14006
594.00	0.13791
594.20	0.13575
594.40	0.13333
594.60	0.13149
594.80	0.12920
595.00	0.12741
595.20	0.12496
595.40	0.12222
595.60	0.12036
595.80	0.11857
596.00	0.11644
596.20	0.11454
596.40	0.11238
596.60	0.11030
596.80	0.10812
597.00	0.10644
597.20	0.10449
597.40	0.10273
597.60	0.10041
597.80	0.098937
598.00	0.097148
598.20	0.095543
598.40	0.094043
598.60	0.092069
598.80	0.090464
599.00	0.089306
599.20	0.087122
599.40	0.085517
599.60	0.084254
599.80	0.082412
600.00	0.080939
600.20	0.079360
600.40	0.077808
600.60	0.076913
600.80	0.075387
601.00	0.073834
601.20	0.072729
601.40	0.071071
601.60	0.070940
601.80	0.069151
602.00	0.068203
602.20	0.066282
602.40	0.065177
602.60	0.064309
602.80	0.063335
603.00	0.062230
603.20	0.061125
603.40	0.060441
603.60	0.059257
603.80	0.058520
604.00	0.057441
604.20	0.055968
604.40	0.055126
604.60	0.054336
604.80	0.053731
605.00	0.052600
605.20	0.051810
605.40	0.051231
605.60	0.050363
605.80	0.050074
606.00	0.048890
606.20	0.048758
606.40	0.047890
606.60	0.046469
606.80	0.046390
607.00	0.045416
607.20	0.044680
607.40	0.044127
607.60	0.043601
607.80	0.043390
608.00	0.042890
608.20	0.041575
608.40	0.041496
608.60	0.041101
608.80	0.040522
609.00	0.040075
609.20	0.039259
609.40	0.039154
609.60	0.038601
609.80	0.038101
610.00	0.038075
610.20	0.037338
610.40	0.036838
610.60	0.036917
610.80	0.036233
611.00	0.035786
611.20	0.035496
611.40	0.035207
611.60	0.035049
611.80	0.034575
612.00	0.033996
612.20	0.033760
612.40	0.033812
612.60	0.033207
612.80	0.032654
613.00	0.032760
613.20	0.032944
613.40	0.032181
613.60	0.031734
613.80	0.031839
614.00	0.031444
614.20	0.031102
614.40	0.031181
614.60	0.031076
614.80	0.030813
615.00	0.029760
615.20	0.030576
615.40	0.030392
615.60	0.030049
615.80	0.029655
616.00	0.029602
616.20	0.029497
616.40	0.029576
616.60	0.029339
616.80	0.028997
617.00	0.029023
617.20	0.028681
617.40	0.028655
617.60	0.028918
617.80	0.028260
618.00	0.028392
618.20	0.028418
618.40	0.028102
618.60	0.028260
618.80	0.027813
619.00	0.028076
619.20	0.028050
619.40	0.027497
619.60	0.027366
619.80	0.027708
620.00	0.027708
620.20	0.027339
620.40	0.027339
620.60	0.027444
620.80	0.027655
621.00	0.026918
621.20	0.026524
621.40	0.026813
621.60	0.026918
621.80	0.026418
622.00	0.026997
622.20	0.026655
622.40	0.026550
622.60	0.026708
622.80	0.026655
623.00	0.026918
623.20	0.026602
623.40	0.027155
623.60	0.026445
623.80	0.026497
624.00	0.027129
624.20	0.026681
624.40	0.026866
624.60	0.026629
624.80	0.026445
625.00	0.026471
625.20	0.026708
625.40	0.026497
625.60	0.026813
625.80	0.026576
626.00	0.026681
626.20	0.027181
626.40	0.026813
626.60	0.027287
626.80	0.027050
627.00	0.025655
627.20	0.026945
627.40	0.027471
627.60	0.026787
627.80	0.026708
628.00	0.027023
628.20	0.027208
628.40	0.026971
628.60	0.027287
628.80	0.027602
629.00	0.027155
629.20	0.027023
629.40	0.027366
629.60	0.027260
629.80	0.027681
630.00	0.027865
630.20	0.027444
630.40	0.027497
630.60	0.028076
630.80	0.027944
631.00	0.027708
631.20	0.028234
631.40	0.027787
631.60	0.028155
631.80	0.028286
632.00	0.028392
632.20	0.028155
632.40	0.028365
632.60	0.028708
632.80	0.028418
633.00	0.028629
633.20	0.028971
633.40	0.029023
633.60	0.029050
633.80	0.029050
634.00	0.029076
634.20	0.028865
634.40	0.029102
634.60	0.029155
634.80	0.029339
635.00	0.028971
635.20	0.029260
635.40	0.029892
635.60	0.030049
635.80	0.030313
636.00	0.030049
636.20	0.030128
636.40	0.030023
636.60	0.030128
636.80	0.030128
637.00	0.030155
637.20	0.030286
637.40	0.030234
637.60	0.030339
637.80	0.030918
638.00	0.030970
638.20	0.030760
638.40	0.031023
638.60	0.031049
638.80	0.030997
639.00	0.031076
639.20	0.030944
639.40	0.031023
639.60	0.031497
639.80	0.031655
640.00	0.031128
640.20	0.031655
640.40	0.031681
640.60	0.032102
640.80	0.031707
641.00	0.032023
641.20	0.031970
641.40	0.031997
641.60	0.032233
641.80	0.032602
642.00	0.032260
642.20	0.032497
642.40	0.032944
642.60	0.032812
642.80	0.032549
643.00	0.033049
643.20	0.032970
643.40	0.032970
643.60	0.032944
643.80	0.032839
644.00	0.033102
644.20	0.033681
644.40	0.033839
644.60	0.033312
644.80	0.033365
645.00	0.033812
645.20	0.033733
645.40	0.033917
645.60	0.033891
645.80	0.034207
646.00	0.033944
646.20	0.033917
646.40	0.034207
646.60	0.034496
646.80	0.034786
647.00	0.034838
647.20	0.034444
647.40	0.034338
647.60	0.034996
647.80	0.035102
648.00	0.034681
648.20	0.034391
648.40	0.035312
648.60	0.034970
648.80	0.034996
649.00	0.034944
649.20	0.034865
649.40	0.035049
649.60	0.035312
649.80	0.035944
650.00	0.035312
650.20	0.035023
650.40	0.035338
650.60	0.034970
650.80	0.035680
651.00	0.035496
651.20	0.035917
651.40	0.035786
651.60	0.035996
651.80	0.035602
652.00	0.036759
652.20	0.035654
652.40	0.036417
652.60	0.036496
652.80	0.036075
653.00	0.035917
653.20	0.036759
653.40	0.035733
653.60	0.036444
653.80	0.036733
654.00	0.036549
654.20	0.036628
654.40	0.036417
654.60	0.036812
654.80	0.036154
655.00	0.036812
655.20	0.036865
655.40	0.036943
655.60	0.037364
655.80	0.037180
656.00	0.037443
656.20	0.037049
656.40	0.037180
656.60	0.037496
656.80	0.037154
657.00	0.037233
657.20	0.037864
657.40	0.037207
657.60	0.037996
657.80	0.037601
658.00	0.037654
658.20	0.037338
658.40	0.038101
658.60	0.038285
658.80	0.038443
659.00	0.038259
659.20	0.038364
659.40	0.038417
659.60	0.038207
659.80	0.038443
660.00	0.038101
660.20	0.038575
660.40	0.039049
660.60	0.038917
660.80	0.038733
661.00	0.039522
661.20	0.037943
661.40	0.038680
661.60	0.039101
661.80	0.038891
662.00	0.039312
662.20	0.038970
662.40	0.038943
662.60	0.039338
662.80	0.038785
663.00	0.039206
663.20	0.039101
663.40	0.038759
663.60	0.039206
663.80	0.039075
664.00	0.040075
664.20	0.039601
664.40	0.040022
664.60	0.039470
664.80	0.039812
665.00	0.039996
665.20	0.040390
665.40	0.040390
665.60	0.041627
665.80	0.041364
666.00	0.041390
666.20	0.041969
666.40	0.042048
666.60	0.042206
666.80	0.042548
667.00	0.042232
667.20	0.042995
667.40	0.042390
667.60	0.042917
667.80	0.042917
668.00	0.042917
668.20	0.043285
668.40	0.043390
668.60	0.044127
668.80	0.044837
669.00	0.044153
669.20	0.044364
669.40	0.044627
669.60	0.044785
669.80	0.044811
670.00	0.044943
670.20	0.045627
670.40	0.045364
670.60	0.044706
670.80	0.045864
671.00	0.045995
671.20	0.045627
671.40	0.046679
671.60	0.046548
671.80	0.046442
672.00	0.046627
672.20	0.046837
672.40	0.047416
672.60	0.047390
672.80	0.048363
673.00	0.048127
673.20	0.048548
673.40	0.048758
673.60	0.049126
673.80	0.049047
674.00	0.048995
674.20	0.049547
674.40	0.049600
674.60	0.049968
674.80	0.050416
675.00	0.050521
675.20	0.051074
675.40	0.051442
675.60	0.051389
675.80	0.051995
676.00	0.052337
676.20	0.052337
676.40	0.053231
676.60	0.052942
676.80	0.053915
677.00	0.054073
677.20	0.054021
677.40	0.054336
677.60	0.055205
677.80	0.054942
678.00	0.055442
678.20	0.055442
678.40	0.056336
678.60	0.056362
678.80	0.056994
679.00	0.057520
679.20	0.057099
679.40	0.057810
679.60	0.058257
679.80	0.058520
680.00	0.058862
680.20	0.058915
680.40	0.059336
680.60	0.059573
680.80	0.060336
681.00	0.060967
681.20	0.060915
681.40	0.061204
681.60	0.061599
681.80	0.061915
682.00	0.062730
682.20	0.062888
682.40	0.063572
682.60	0.064151
682.80	0.064020
683.00	0.064888
683.20	0.064914
683.40	0.065388
683.60	0.065783
683.80	0.066493
684.00	0.066809
684.20	0.066940
684.40	0.067309
684.60	0.067861
684.80	0.068335
685.00	0.068651
685.20	0.069098
685.40	0.069572
685.60	0.070414
685.80	0.070519
686.00	0.071256
686.20	0.071361
686.40	0.072571
686.60	0.072650
686.80	0.072992
687.00	0.074176
687.20	0.073703
687.40	0.074650
687.60	0.074729
687.80	0.075176
688.00	0.075413
688.20	0.076360
688.40	0.077150
688.60	0.076966
688.80	0.077965
689.00	0.078860
689.20	0.079307
689.40	0.079465
689.60	0.079755
689.80	0.080281
690.00	0.080597
690.20	0.081649
690.40	0.082097
690.60	0.082386
690.80	0.082965
691.00	0.083649
691.20	0.083675
691.40	0.084570
691.60	0.085333
691.80	0.085649
692.00	0.086228
692.20	0.085833
692.40	0.086465
692.60	0.086412
692.80	0.087596
693.00	0.088017
693.20	0.088149
693.40	0.089385
693.60	0.089885
693.80	0.089727
694.00	0.090754
694.20	0.091464
694.40	0.091859
694.60	0.092148
694.80	0.092780
695.00	0.092885
695.20	0.094016
695.40	0.094385
695.60	0.094911
695.80	0.095490
696.00	0.096516
696.20	0.097490
696.40	0.097411
696.60	0.098227
696.80	0.098437
697.00	0.099253
697.20	0.10023
697.40	0.10002
697.60	0.10065
697.80	0.10157
698.00	0.10154
698.20	0.10209
698.40	0.10302
698.60	0.10373
698.80	0.10391
699.00	0.10446
699.20	0.10494
699.40	0.10507
699.60	0.10596
699.80	0.10636
700.00	0.10688
700.20	0.10704
700.40	0.10796
700.60	0.10809
700.80	0.10899
701.00	0.10965
701.20	0.10975
701.40	0.11091
701.60	0.11099
701.80	0.11088
702.00	0.11178
702.20	0.11209
702.40	0.11162
702.60	0.11301
702.80	0.11320
703.00	0.11378
703.20	0.11401
703.40	0.11396
703.60	0.11467
703.80	0.11520
704.00	0.11578
704.20	0.11628
704.40	0.11638
704.60	0.11654
704.80	0.11757
705.00	0.11704
705.20	0.11786
705.40	0.11799
705.60	0.11875
705.80	0.11857
706.00	0.11909
706.20	0.11957
706.40	0.11943
706.60	0.12017
706.80	0.12091
707.00	0.12091
707.20	0.12151
707.40	0.12070
707.60	0.12138
707.80	0.12122
708.00	0.12151
708.20	0.12157
708.40	0.12201
708.60	0.12272
708.80	0.12280
709.00	0.12309
709.20	0.12354
709.40	0.12346
709.60	0.12436
709.80	0.12375
710.00	0.12443
710.20	0.12504
710.40	0.12488
710.60	0.12512
710.80	0.12551
711.00	0.12522
711.20	0.12580
711.40	0.12562
711.60	0.12570
711.80	0.12614
712.00	0.12641
712.20	0.12649
712.40	0.12617
712.60	0.12720
712.80	0.12699
713.00	0.12696
713.20	0.12717
713.40	0.12709
713.60	0.12717
713.80	0.12709
714.00	0.12672
714.20	0.12736
714.40	0.12736
714.60	0.12757
714.80	0.12793
715.00	0.12738
715.20	0.12814
715.40	0.12772
715.60	0.12812
715.80	0.12772
716.00	0.12780
716.20	0.12788
716.40	0.12775
716.60	0.12704
716.80	0.12770
717.00	0.12770
717.20	0.12741
717.40	0.12733
717.60	0.12767
717.80	0.12764
718.00	0.12817
718.20	0.12772
718.40	0.12770
718.60	0.12859
718.80	0.12843
719.00	0.12922
719.20	0.12899
719.40	0.12899
719.60	0.12912
719.80	0.12907
720.00	0.12943
720.20	0.12857
720.40	0.12880
720.60	0.12885
720.80	0.12875
721.00	0.12872
721.20	0.12949
721.40	0.12893
721.60	0.12885
721.80	0.12928
722.00	0.12946
722.20	0.12909
722.40	0.12954
722.60	0.12922
722.80	0.12941
723.00	0.12991
723.20	0.12972
723.40	0.12983
723.60	0.12949
723.80	0.13001
724.00	0.13007
724.20	0.12999
724.40	0.13035
724.60	0.13007
724.80	0.13059
725.00	0.13043
725.20	0.13064
725.40	0.13075
725.60	0.13109
725.80	0.13180
726.00	0.13120
726.20	0.13154
726.40	0.13264
726.60	0.13233
726.80	0.13159
727.00	0.13138
727.20	0.13151
727.40	0.13204
727.60	0.13230
727.80	0.13259
728.00	0.13254
728.20	0.13328
728.40	0.13320
728.60	0.13364
728.80	0.13417
729.00	0.13433
729.20	0.13509
729.40	0.13509
729.60	0.13559
729.80	0.13709
730.00	0.13725
730.20	0.13720
730.40	0.13812
730.60	0.13801
730.80	0.13891
731.00	0.13891
731.20	0.13946
731.40	0.13985
731.60	0.14072
731.80	0.14096
732.00	0.14180
732.20	0.14206
732.40	0.14354
732.60	0.14338
732.80	0.14367
733.00	0.14464
733.20	0.14512
733.40	0.14546
733.60	0.14617
733.80	0.14654
734.00	0.14798
734.20	0.14848
734.40	0.14904
734.60	0.14967
734.80	0.15072
735.00	0.15198
735.20	0.15275
735.40	0.15343
735.60	0.15485
735.80	0.15583
736.00	0.15640
736.20	0.15648
736.40	0.15825
736.60	0.15877
736.80	0.15980
737.00	0.16114
737.20	0.16201
737.40	0.16332
737.60	0.16375
737.80	0.16543
738.00	0.16638
738.20	0.16704
738.40	0.16848
738.60	0.16814
738.80	0.17003
739.00	0.17146
739.20	0.17253
739.40	0.17388
739.60	0.17517
739.80	0.17630
740.00	0.17735
740.20	0.17861
740.40	0.18053
740.60	0.18145
740.80	0.18306
741.00	0.18430
741.20	0.18574
741.40	0.18695
741.60	0.18893
741.80	0.18985
742.00	0.19166
742.20	0.19361
742.40	0.19503
742.60	0.19674
742.80	0.19814
743.00	0.20022
743.20	0.20274
743.40	0.20427
743.60	0.20600
743.80	0.20824
744.00	0.20961
744.20	0.21164
744.40	0.21303
744.60	0.21529
744.80	0.21750
745.00	0.21929
745.20	0.22132
745.40	0.22329
745.60	0.22569
745.80	0.22798
746.00	0.23032
746.20	0.23179
746.40	0.23424
746.60	0.23671
746.80	0.23908
747.00	0.24153
747.20	0.24426
747.40	0.24624
747.60	0.24876
747.80	0.25153
748.00	0.25392
748.20	0.25645
748.40	0.25960
748.60	0.26231
748.80	0.26516
749.00	0.26718
749.20	0.27000
749.40	0.27237
749.60	0.27547
749.80	0.27810
750.00	0.28094
750.20	0.28463
750.40	0.28721
750.60	0.29113
750.80	0.29423
751.00	0.29760
751.20	0.30168
751.40	0.30449
751.60	0.30789
751.80	0.31131
752.00	0.31476
752.20	0.31773
752.40	0.32199
752.60	0.32539
752.80	0.32891
753.00	0.33312
753.20	0.33654
753.40	0.34062
753.60	0.34491
753.80	0.34909
754.00	0.35280
754.20	0.35691
754.40	0.36130
754.60	0.36525
754.80	0.36912
755.00	0.37393
755.20	0.37767
755.40	0.38235
755.60	0.38651
755.80	0.39109
756.00	0.39583
756.20	0.40080
756.40	0.40477
756.60	0.40980
756.80	0.41530
757.00	0.42006
757.20	0.42522
757.40	0.42988
757.60	0.43469
757.80	0.43995
758.00	0.44427
758.20	0.45043
758.40	0.45540
758.60	0.46085
758.80	0.46598
759.00	0.47177
759.20	0.47663
759.40	0.48216
759.60	0.48829
759.80	0.49361
760.00	0.49929
760.20	0.50445
760.40	0.51039
760.60	0.51558
760.80	0.52189
761.00	0.52768
761.20	0.53368
761.40	0.53905
761.60	0.54534
761.80	0.55134
762.00	0.55728
762.20	0.56310
762.40	0.57015
762.60	0.57523
762.80	0.58149
763.00	0.58794
763.20	0.59436
763.40	0.60070
763.60	0.60736
763.80	0.61328
764.00	0.61886
764.20	0.62562
764.40	0.63257
764.60	0.63854
764.80	0.64480
765.00	0.65162
765.20	0.65790
765.40	0.66435
765.60	0.67185
765.80	0.67780
766.00	0.68432
766.20	0.69030
766.40	0.69708
766.60	0.70374
766.80	0.71061
767.00	0.71700
767.20	0.72350
767.40	0.72995
767.60	0.73624
767.80	0.74258
768.00	0.74921
768.20	0.75603
768.40	0.76221
768.60	0.76871
768.80	0.77550
769.00	0.78150
769.20	0.78763
769.40	0.79373
769.60	0.80007
769.80	0.80615
770.00	0.81218
770.20	0.81897
770.40	0.82431
770.60	0.83002
770.80	0.83665
771.00	0.84238
771.20	0.84817
771.40	0.85412
771.60	0.85994
771.80	0.86551
772.00	0.87109
772.20	0.87646
772.40	0.88130
772.60	0.88714
772.80	0.89241
773.00	0.89759
773.20	0.90248
773.40	0.90767
773.60	0.91261
773.80	0.91740
774.00	0.92227
774.20	0.92701
774.40	0.93127
774.60	0.93582
774.80	0.94003
775.00	0.94495
775.20	0.94806
775.40	0.95240
775.60	0.95603
775.80	0.95982
776.00	0.96287
776.20	0.96653
776.40	0.97013
776.60	0.97295
776.80	0.97582
777.00	0.97848
777.20	0.98090
777.40	0.98287
777.60	0.98555
777.80	0.98779
778.00	0.99013
778.20	0.99182
778.40	0.99340
778.60	0.99466
778.80	0.99576
779.00	0.99708
779.20	0.99874
779.40	0.99955
779.60	0.99934
779.80	0.99984
780.00	0.99979
780.20	1.0000
780.40	0.99955
780.60	0.99916
780.80	0.99816
781.00	0.99713
781.20	0.99671
781.40	0.99471
781.60	0.99416
781.80	0.99205
782.00	0.99005
782.20	0.98803
782.40	0.98584
782.60	0.98271
782.80	0.97992
783.00	0.97732
783.20	0.97434
783.40	0.97069
783.60	0.96724
783.80	0.96314
784.00	0.95900
784.20	0.95477
784.40	0.94982
784.60	0.94535
784.80	0.94080
785.00	0.93535
785.20	0.93019
785.40	0.92453
785.60	0.91903
785.80	0.91285
786.00	0.90635
786.20	0.89998
786.40	0.89354
786.60	0.88622
786.80	0.88051
787.00	0.87351
787.20	0.86570
787.40	0.85878
787.60	0.85052
787.80	0.84283
788.00	0.83418
788.20	0.82662
788.40	0.81789
788.60	0.80939
788.80	0.80047
789.00	0.79168
789.20	0.78365
789.40	0.77410
789.60	0.76484
789.80	0.75550
790.00	0.74621
790.20	0.73719
790.40	0.72732
790.60	0.71724
790.80	0.70719
791.00	0.69774
791.20	0.68782
791.40	0.67753
791.60	0.66719
791.80	0.65754
792.00	0.64788
792.20	0.63717
792.40	0.62788
792.60	0.61707
792.80	0.60683
793.00	0.59678
793.20	0.58641
793.40	0.57683
793.60	0.56639
793.80	0.55592
794.00	0.54657
794.20	0.53600
794.40	0.52592
794.60	0.51566
794.80	0.50547
795.00	0.49576
795.20	0.48545
795.40	0.47571
795.60	0.46656
795.80	0.45629
796.00	0.44598
796.20	0.43730
796.40	0.42746
796.60	0.41793
796.80	0.40911
797.00	0.40009
797.20	0.39112
797.40	0.38283
797.60	0.37357
797.80	0.36488
798.00	0.35620
798.20	0.34831
798.40	0.33949
798.60	0.33173
798.80	0.32286
799.00	0.31536
799.20	0.30731
799.40	0.30021
799.60	0.29247
799.80	0.28544
800.00	0.27742
800.20	0.27102
800.40	0.26384
800.60	0.25710
800.80	0.25021
801.00	0.24371
801.20	0.23724
801.40	0.23145
801.60	0.22545
801.80	0.21892
802.00	0.21329
802.20	0.20719
802.40	0.20177
802.60	0.19627
802.80	0.19137
803.00	0.18614
803.20	0.18048
803.40	0.17643
803.60	0.17125
803.80	0.16677
804.00	0.16238
804.20	0.15783
804.40	0.15346
804.60	0.14909
804.80	0.14480
805.00	0.14114
805.20	0.13788
805.40	0.13333
805.60	0.13028
805.80	0.12664
806.00	0.12301
806.20	0.11978
806.40	0.11646
806.60	0.11341
806.80	0.10999
807.00	0.10704
807.20	0.10425
807.40	0.10199
807.60	0.098884
807.80	0.096306
808.00	0.094253
808.20	0.091385
808.40	0.089017
808.60	0.086649
808.80	0.084096
809.00	0.082018
809.20	0.079781
809.40	0.077150
809.60	0.075834
809.80	0.073782
810.00	0.071887
810.20	0.069993
810.40	0.068414
810.60	0.066940
810.80	0.065440
811.00	0.063888
811.20	0.062388
811.40	0.060204
811.60	0.059152
811.80	0.057626
812.00	0.055941
812.20	0.055389
812.40	0.053205
812.60	0.052442
812.80	0.051495
813.00	0.050153
813.20	0.048863
813.40	0.047837
813.60	0.046127
813.80	0.045364
814.00	0.044680
814.20	0.043837
814.40	0.042311
814.60	0.041680
814.80	0.041180
815.00	0.039522
815.20	0.039680
815.40	0.037996
815.60	0.037996
815.80	0.036759
816.00	0.036023
816.20	0.035759
816.40	0.034233
816.60	0.033865
816.80	0.033575
817.00	0.032681
817.20	0.032023
817.40	0.031839
817.60	0.031049
817.80	0.030549
818.00	0.029997
818.20	0.029260
818.40	0.028892
818.60	0.027997
818.80	0.027813
819.00	0.027129
819.20	0.027339
819.40	0.026129
819.60	0.026339
819.80	0.025603
820.00	0.025524
820.20	0.024813
820.40	0.024234
820.60	0.024182
820.80	0.023866
821.00	0.023077
821.20	0.022708
821.40	0.022971
821.60	0.022103
821.80	0.022077
822.00	0.021682
822.20	0.020472
822.40	0.020761
822.60	0.020182
822.80	0.020208
823.00	0.019156
823.20	0.019814
823.40	0.019077
823.60	0.018656
823.80	0.018445
824.00	0.018209
824.20	0.017972
824.40	0.017761
824.60	0.017682
824.80	0.017235
825.00	0.017235
825.20	0.016446
825.40	0.016393
825.60	0.016209
825.80	0.016314
826.00	0.015656
826.20	0.015867
826.40	0.015525
826.60	0.015998
826.80	0.014341
827.00	0.014762
827.20	0.015209
827.40	0.014025
827.60	0.014262
827.80	0.014156
828.00	0.013630
828.20	0.013735
828.40	0.013893
828.60	0.013735
828.80	0.013288
829.00	0.012604
829.20	0.012972
829.40	0.013078
829.60	0.012472
829.80	0.013104
830.00	0.012051
830.20	0.012525
830.40	0.011762
830.60	0.011999
830.80	0.011841
831.00	0.011341
831.20	0.011051
831.40	0.010894
831.60	0.010736
831.80	0.011104
832.00	0.011736
832.20	0.011420
832.40	0.010788
832.60	0.010999
832.80	0.010183
833.00	0.010946
833.20	0.010341
833.40	0.0096569
833.60	0.010420
833.80	0.0088675
834.00	0.0094464
834.20	0.010315
834.40	0.010025
834.60	0.0097621
834.80	0.0089727
835.00	0.0094464
835.20	0.0090517
835.40	0.0090780
835.60	0.0086570
835.80	0.0089727
836.00	0.0088675
836.20	0.0085254
836.40	0.0086833
836.60	0.0086044
836.80	0.0084202
837.00	0.0076834
837.20	0.0074729
837.40	0.0083939
837.60	0.0080255
837.80	0.0088412
838.00	0.0076571
838.20	0.0082097
838.40	0.0077097
838.60	0.0078676
838.80	0.0074729
839.00	0.0082360
839.20	0.0077623
839.40	0.0079202
839.60	0.0077887
839.80	0.0066309
840.00	0.0070256
840.20	0.0069993
840.40	0.0069730
840.60	0.0065519
840.80	0.0067098
841.00	0.0069203
841.20	0.0071045
841.40	0.0065519
841.60	0.0065783
841.80	0.0074729
842.00	0.0072624
842.20	0.0056836
842.40	0.0067888
842.60	0.0064467
842.80	0.0057889
843.00	0.0068151
843.20	0.0067361
843.40	0.0061309
843.60	0.0065256
843.80	0.0054731
844.00	0.0057889
844.20	0.0054731
844.40	0.0054468
844.60	0.0052100
844.80	0.0057889
845.00	0.0048416
845.20	0.0057889
845.40	0.0055784
845.60	0.0049995
845.80	0.0054994
846.00	0.0055520
846.20	0.0046311
846.40	0.0060520
846.60	0.0049732
846.80	0.0047890
847.00	0.0049468
847.20	0.0043680
847.40	0.0054731
847.60	0.0053942
847.80	0.0053152
848.00	0.0048942
848.20	0.0053415
848.40	0.0054205
848.60	0.0047890
848.80	0.0048416
849.00	0.0052626
849.20	0.0047363
849.40	0.0054205
849.60	0.0046574
849.80	0.0049205
850.00	0.0050521
850.20	0.0049732
850.40	0.0053415
850.60	0.0046048
850.80	0.0040785
851.00	0.0042890
851.20	0.0045258
851.40	0.0048416
851.60	0.0044206
851.80	0.0046837
852.00	0.0039206
852.20	0.0046574
852.40	0.0043416
852.60	0.0044469
852.80	0.0039733
853.00	0.0039470
853.20	0.0039206
853.40	0.0039733
853.60	0.0044206
853.80	0.0043680
854.00	0.0036575
854.20	0.0032891
854.40	0.0033154
854.60	0.0030260
854.80	0.0036049
855.00	0.0043153
855.20	0.0037891
855.40	0.0035259
855.60	0.0028155
855.80	0.0039733
856.00	0.0029997
856.20	0.0034207
856.40	0.0031839
856.60	0.0034996
856.80	0.0033944
857.00	0.0038417
857.20	0.0027892
857.40	0.0031839
857.60	0.0035259
857.80	0.0041311
858.00	0.0027366
858.20	0.0041311
858.40	0.0031049
858.60	0.0030523
858.80	0.0031049
859.00	0.0031576
859.20	0.0039206
859.40	0.0032365
859.60	0.0032891
859.80	0.0039470
860.00	0.0040522
860.20	0.0032365
860.40	0.0036049
860.60	0.0031312
860.80	0.0033154
861.00	0.0040522
861.20	0.0044995
861.40	0.0031576
861.60	0.0029471
861.80	0.0038417
862.00	0.0031312
862.20	0.0030260
862.40	0.0034733
862.60	0.0025524
862.80	0.0030786
863.00	0.0035786
863.20	0.0035523
863.40	0.0037101
863.60	0.0040785
863.80	0.0027102
864.00	0.0035259
864.20	0.0026839
864.40	0.0042627
864.60	0.0035786
864.80	0.0035523
865.00	0.0027892
865.20	0.0039733
865.40	0.0042364
865.60	0.0043416
865.80	0.0041838
866.00	0.0032102
866.20	0.0043416
866.40	0.0041048
866.60	0.0038154
866.80	0.0037101
867.00	0.0050258
867.20	0.0043416
867.40	0.0045258
867.60	0.0052626
867.80	0.0049995
868.00	0.0045785
868.20	0.0047100
868.40	0.0042364
868.60	0.0048942
868.80	0.0049205
869.00	0.0050784
869.20	0.0056573
869.40	0.0044732
869.60	0.0049468
869.80	0.0052626
870.00	0.0051837
870.20	0.0048679
870.40	0.0041575
870.60	0.0049205
870.80	0.0053415
871.00	0.0056836
871.20	0.0053942
871.40	0.0044206
871.60	0.0047363
871.80	0.0041575
872.00	0.0049732
872.20	0.0047890
872.40	0.0046574
872.60	0.0050521
872.80	0.0053679
873.00	0.0057889
873.20	0.0050521
873.40	0.0034996
873.60	0.0055520
873.80	0.0036312
874.00	0.0058678
874.20	0.0039733
874.40	0.0049995
874.60	0.0042101
874.80	0.0044206
875.00	0.0047100
875.20	0.0048416
875.40	0.0046048
875.60	0.0046574
875.80	0.0049995
876.00	0.0048153
876.20	0.0034996
876.40	0.0048153
876.60	0.0043153
876.80	0.0050521
877.00	0.0042627
877.20	0.0040259
877.40	0.0035786
877.60	0.0037101
877.80	0.0044206
878.00	0.0044206
878.20	0.0046574
878.40	0.0036049
878.60	0.0036312
878.80	0.0026839
879.00	0.0032365
879.20	0.0024471
879.40	0.0013157
879.60	0.0021314
879.80	0.0024734
880.00	0.0014472
880.20	0.0027366
880.40	0.0017630
880.60	0.0034733
880.80	0.0018156
881.00	0.0026313
881.20	0.0018419
881.40	0.0028944
881.60	0.00063151
881.80	0.00092096
882.00	0.0020787
882.20	0.0029207
882.40	0.0019735
882.60	0.0023945
882.80	0.0029207
883.00	0.0024208
883.20	0.0030523
883.40	0.0024997
883.60	0.0029997
883.80	0.0036312
884.00	0.0034733
884.20	0.0022103
884.40	0.0018945
884.60	0.0011841
884.80	0.00099989
885.00	0.0048942
885.20	0.0035786
885.40	0.0018682
885.60	0.0037891
885.80	0.0031576
886.00	0.0014209
886.20	0.0024997
886.40	0.0041048
886.60	0.0049468
886.80	0.0044469
887.00	0.0041838
887.20	0.0019998
887.40	0.0034207
887.60	0.0027892
887.80	0.0037364
888.00	0.0028155
888.20	0.0025787
888.40	0.0029997
888.60	0.00092096
888.80	0.00084202
889.00	0.0033154
889.20	0.0027892
889.40	0.0011578
889.60	0.0048416
889.80	0.0054468
890.00	0.0018945
890.20	0.0013157
890.40	0.00052626
890.60	0.0020787
890.80	0.0026839
891.00	0.0029997
891.20	0.0029997
891.40	0.0019472
891.60	0.0037101
891.80	0.0015788
892.00	0.0015788
892.20	0.0055784
892.40	0.0023945
892.60	0.00094727
892.80	0.0029471
893.00	0.0033944
893.20	0.0057889
893.40	0.0024997
893.60	0.0066835
893.80	0.0057626
894.00	0.0038680
894.20	0.0019472
894.40	0.0014998
894.60	0.0033154
894.80	0.00063151
895.00	0.0041311
895.20	0.0022103
895.40	0.0039206
895.60	0.0043153
895.80	0.0021050
896.00	0.0037891
896.20	0.0051837
896.40	0.0063678
896.60	0.0041311
896.80	0.0041838
897.00	0.0048416
897.20	0.00034207
897.40	0.0029997
897.60	0.0026839
897.80	0.0034733
898.00	0.0043943
898.20	0.0033944
898.40	0.0013157
898.60	0.0024734
898.80	0.0053679
899.00	0.0022103
899.20	0.0054468
899.40	0.0069730
899.60	0.0051310
899.80	0.0056836
900.00	0.0024208
